# NUMBER X_IMAGE Y_IMAGE MAG_AUTO MAGERR_AUTO MAG_APER MAGERR_APER CLASS_STAR FLUX_AUTO FLUXERR_AUTO FLUX_APER FLUXERR_APER ALPHA_J2000 DELTA_J2000 SNR
# 1 NUMBER                 Running object number
# 2 X_IMAGE                Object position along x                                    [pixel]
# 3 Y_IMAGE                Object position along y                                    [pixel]
# 4 MAG_AUTO               Kron-like elliptical aperture magnitude                    [mag]
# 5 MAGERR_AUTO            RMS error for AUTO magnitude                               [mag]
# 6 MAG_APER               Fixed aperture magnitude vector                            [mag]
# 7 MAGERR_APER            RMS error vector for fixed aperture mag.                   [mag]
# 8 CLASS_STAR             S/G classifier output
# 9 FLUX_AUTO              Flux within a Kron-like elliptical aperture                [count]
# 10 FLUXERR_AUTO           RMS error for AUTO flux                                    [count]
# 11 FLUX_APER              Flux vector within fixed circular aperture(s)              [count]
# 12 FLUXERR_APER           RMS error vector for aperture flux(es)                     [count]
# 13 ALPHA_J2000            Right ascension of barycenter (J2000)                      [deg]
# 14 DELTA_J2000            Declination of barycenter (J2000)                          [deg]
786 2207.6558 613.9249 27.9923 0.0003 28.6388 0.0002 1.0 1.090624 0.0002672366 0.6013051 9.608495e-05 215.1624928 52.9636531 6.040054094386772
1296 8585.7891 785.2897 26.7716 0.0001 28.3959 0.0001 0.997 3.357125 0.0002944233 0.752085 9.596263e-05 215.1033561 52.9241929 16.875515626650476
1722 7883.834 965.3345 27.6768 0.0001 28.4672 0.0001 1.0 1.458403 0.0001986615 0.7042285 9.603603e-05 215.1077692 52.9296143 10.864895513222239
1769 8561.8369 956.72 26.1516 0.0001 28.9727 0.0002 0.962 5.942711 0.0006741296 0.4421006 9.59871e-05 215.1017699 52.9252728 13.046767683840022
2507 7374.7666 1252.985 28.6357 0.0003 29.5693 0.0004 0.954 0.6030101 0.000169293 0.2552141 9.601157e-05 215.1093195 52.9343964 5.271658887254642
2571 693.2176 1273.8145 26.7816 0.0001 28.9152 0.0002 1.0 3.326433 0.0002440327 0.4661515 9.59871e-05 215.1691864 52.9768158 20.174021104548697
2765 9562.6865 1329.5841 27.7793 0.0002 28.6819 0.0002 0.997 1.32707 0.0002352093 0.5778971 9.596263e-05 215.0888645 52.9209509 8.350280367315408
3189 3711.1279 1447.8164 26.6324 0.0001 28.2108 0.0001 0.518 3.816416 0.0003024912 0.8918651 9.603603e-05 215.1402036 52.9586533 18.672595037475467
3481 2747.1089 1539.4988 27.6908 0.0002 29.8447 0.0005 0.998 1.43975 0.0002672366 0.1980239 9.628034e-05 215.147911 52.9652537 7.97357098541143
3489 2756.8665 1532.7416 27.9694 0.0003 99.0 99.0 0.963 1.11389 0.000280322 -0.01953494 9.608495e-05 215.1478943 52.9651553 5.880941203330456
3547 694.2742 1514.3534 26.7477 0.0001 28.3067 0.0001 0.484 3.431966 0.0003364981 0.8164285 9.603603e-05 215.1666483 52.9781128 15.094616225173338
4819 2078.6189 1821.8158 28.4234 0.0003 29.1349 0.0003 0.999 0.7332454 0.0002162149 0.3807553 9.601157e-05 215.1509576 52.9710157 5.0190953167427415
5003 8319.2656 1844.9655 27.4188 0.0002 28.9525 0.0002 0.995 1.849631 0.0003187514 0.4504111 9.603603e-05 215.0946139 52.9316185 8.588052883846157
5063 773.3489 1892.937 28.2335 0.0003 28.7544 0.0002 1.0 0.8733953 0.000211269 0.5405754 9.610939e-05 215.1619565 52.9796642 6.118384826926808
5927 9174.3506 2138.1587 28.4097 0.0003 28.9603 0.0002 0.997 0.7425206 0.0001757608 0.4471996 9.608495e-05 215.0838535 52.9277881 6.252420835590188
6296 8776.5557 2240.8384 27.1908 0.0002 28.663 0.0002 0.962 2.281881 0.0003550127 0.588033 9.613383e-05 215.0863462 52.9308643 9.512853709177165
7258 2732.3145 2515.7036 26.088 0.0001 28.4292 0.0001 0.995 6.301013 0.0003238693 0.729367 9.628034e-05 215.1377813 52.9706364 28.794020427376108
7290 1384.4495 2524.2556 28.8153 0.0003 29.1603 0.0003 1.0 0.5110586 0.0001366604 0.371963 9.608495e-05 215.1498187 52.9792167 5.534644476380868
7336 4114.79 2538.1543 28.0646 0.0002 29.561 0.0004 1.0 1.020353 0.0001826431 0.2571642 9.60605e-05 215.1251114 52.9620036 8.268160363024938
7526 10045.9941 2591.3918 27.905 0.0002 28.4232 0.0001 0.99 1.181955 0.0002001342 0.7333604 9.584014e-05 215.0712641 52.9247179 8.74060205602041
7829 3414.9658 2651.8015 28.4016 0.0003 30.144 0.0007 1.0 0.7481278 0.0001971778 0.1503181 9.59871e-05 215.13021 52.967051 5.6153844094010585
7967 3412.147 2685.5774 27.5089 0.0002 29.0816 0.0003 1.0 1.702361 0.0002497419 0.3999032 9.60605e-05 215.1298802 52.9672518 10.088392376289283
8057 4258.4224 2707.7722 27.5762 0.0001 28.8567 0.0002 0.981 1.600002 0.0002101542 0.4919659 9.603603e-05 215.1220365 52.9620127 11.267930690892687
8083 4257.7275 2716.6899 27.7351 0.0002 28.5501 0.0002 1.0 1.382149 0.0002281108 0.6524604 9.625594e-05 215.121949 52.9620654 8.967486502173506
8333 6913.0151 2795.1245 27.3081 0.0001 28.4088 0.0001 1.0 2.048272 0.0002207843 0.7431878 9.603603e-05 215.0972583 52.9456713 13.73033571680595
8626 2908.3032 2880.9854 27.6567 0.0001 28.5846 0.0002 1.0 1.485707 0.0001710188 0.6320652 9.591365e-05 215.1323573 52.9715008 12.857337088086224
8635 2935.5737 2877.1462 25.8847 0.0 28.1878 0.0001 0.992 7.598176 0.0003469813 0.9108952 9.60605e-05 215.1321524 52.9713074 32.408952528565656
8822 4119.3994 2937.7883 27.8373 0.0002 29.0743 0.0003 1.0 1.258009 0.0001810282 0.4026101 9.579111e-05 215.120868 52.9641389 10.284880035265223
9115 9679.0527 3009.1038 27.3305 0.0002 28.2677 0.0001 0.962 2.006285 0.000300348 0.8463361 9.613383e-05 215.070167 52.9293037 9.886204669250336
9296 8098.3418 3055.6768 27.121 0.0001 28.5085 0.0002 0.965 2.433314 0.0003254973 0.6779624 9.608495e-05 215.0838712 52.939572 11.064007965657472
9437 9288.7871 3104.2708 28.3999 0.0003 28.7256 0.0002 0.998 0.7493125 0.000191128 0.5550884 9.603603e-05 215.0726703 52.9322918 5.802302645347621
9482 2941.9465 3109.5176 27.5097 0.0002 29.2561 0.0003 1.0 1.701153 0.0002648081 0.3405259 9.608495e-05 215.1296516 52.9725257 9.507664002724992
9786 8349.2588 3162.0151 27.1106 0.0001 27.7215 0.0001 0.215 2.456898 0.0002076238 1.399547 9.601157e-05 215.0804997 52.9385577 17.513449999470197
9883 9984.9609 3188.5007 27.562 0.0001 27.8078 0.0001 0.995 1.621024 0.0001956829 1.292669 9.60605e-05 215.065535 52.9283358 12.26022059157954
9887 8849.8633 3193.8562 28.2668 0.0002 28.3823 0.0001 0.996 0.8469982 0.000161844 0.7615557 9.610939e-05 215.0756694 52.935558 7.745466844615804
9978 3651.7561 3224.8074 28.2714 0.0003 28.8846 0.0002 1.0 0.8434349 0.0001989569 0.4794839 9.60605e-05 215.1220552 52.9686551 6.27414104260772
10712 10222.1152 3407.9246 27.6905 0.0002 28.5225 0.0002 0.996 1.440207 0.0002042012 0.6693061 9.61827e-05 215.0610994 52.9280201 10.4382655929544
10949 7669.9448 3465.6829 29.1599 0.0003 29.1446 0.0003 0.998 0.372102 0.0001033867 0.3773712 9.610939e-05 215.0834081 52.9445056 5.326709915298583
10978 9488.8945 3474.4797 28.915 0.0002 28.9576 0.0002 0.999 0.4662537 0.0001039532 0.4482799 9.620711e-05 215.0669815 52.9330271 6.638135968878303
11097 2767.0869 3494.4434 28.085 0.0003 29.5633 0.0004 0.969 1.001429 0.0002487994 0.2566279 9.601157e-05 215.1271764 52.9757181 5.957067902896871
11395 10826.6055 3542.0095 27.5528 0.0002 28.6692 0.0002 0.948 1.63495 0.0002914159 0.5846745 9.584014e-05 215.0542644 52.9249143 8.303342405133007
11630 3624.3711 3622.7246 27.9939 0.0002 28.9674 0.0002 0.997 1.089036 0.0002311797 0.4442739 9.60605e-05 215.1181168 52.9709836 6.971949872761319
11754 3390.3059 3640.8723 27.0535 0.0001 27.8454 0.0001 0.963 2.589434 0.0002381868 1.248682 9.61827e-05 215.120031 52.9725643 16.089734275786903
11822 4444.7344 3674.0681 28.3085 0.0002 28.5988 0.0002 1.0 0.8151184 0.0001273162 0.6238824 9.610939e-05 215.1102003 52.9660657 9.475426002346913
12088 10618.4756 3728.9189 27.9421 0.0002 28.702 0.0002 0.967 1.142267 0.0001923532 0.5672745 9.61827e-05 215.0541671 52.9272447 8.788807048699995
12423 1550.4949 3824.1147 27.9552 0.0002 28.337 0.0001 0.998 1.128549 0.0001774236 0.7939997 9.628034e-05 215.1346545 52.9852079 9.413925317714217
13199 9481.1953 4033.5769 27.6513 0.0002 28.7319 0.0002 1.0 1.493124 0.0002242157 0.5518726 9.59871e-05 215.0611718 52.9361012 9.855792970786613
13291 10620.5586 4067.2268 28.4261 0.0002 28.6678 0.0002 0.999 0.731398 0.0001513427 0.5854309 9.608495e-05 215.0505912 52.9290618 7.15243642408917
13623 2342.3025 4185.4761 27.8724 0.0002 28.6804 0.0002 0.948 1.218047 0.0002167575 0.5786798 9.623153e-05 215.1237294 52.9821511 8.316711347934906
14208 3172.7412 4402.1143 27.314 0.0001 28.3114 0.0001 0.987 2.037084 0.0002752478 0.8129413 9.61827e-05 215.1139809 52.9780649 10.953345748812525
14464 9786.7168 4551.9751 26.9957 0.0001 28.2513 0.0001 1.0 2.731084 0.0003305107 0.8592167 9.59871e-05 215.0529776 52.9369695 12.229571750627134
14875 829.0549 4667.0513 28.5575 0.0003 28.8234 0.0002 0.998 0.6480426 0.0001832851 0.5072879 9.608495e-05 215.1322795 52.9943425 5.232847885616453
14955 2503.5557 4692.7925 28.8068 0.0003 29.3525 0.0003 0.999 0.5150853 0.0001513427 0.3116131 9.60605e-05 215.1169421 52.9838775 5.037086321309188
15130 1076.6282 4775.5669 27.9158 0.0002 28.7204 0.0002 0.996 1.170319 0.0002379401 0.5577835 9.60605e-05 215.1289097 52.9933626 7.279446045454297
15320 797.137 4827.2383 28.1907 0.0003 29.5289 0.0004 0.999 0.9084843 0.0002461892 0.2648868 9.603603e-05 215.1308814 52.9954124 5.4614774490513796
15494 8750.4131 4915.3184 28.0447 0.0003 28.5176 0.0002 0.997 1.039301 0.0002469038 0.672289 9.601157e-05 215.0584597 52.9455036 6.229816957049669
15532 7519.4141 4916.168 28.1481 0.0002 28.4661 0.0001 0.999 0.9448214 0.0001625681 0.7049764 9.603603e-05 215.0695058 52.9533097 8.601537890890032
15837 9067.5967 5016.811 27.4125 0.0001 29.336 0.0003 1.0 1.860339 0.0002433097 0.316366 9.579111e-05 215.0545444 52.9440423 11.316037626120124
15894 9083.9883 5022.5181 27.2092 0.0001 28.6757 0.0002 1.0 2.243442 0.0001851977 0.5811905 9.601157e-05 215.0543372 52.9439693 17.92837686429151
15935 7316.8765 5027.7856 28.5183 0.0003 30.9245 0.0014 0.934 0.6718927 0.0001720459 0.07324962 9.60605e-05 215.070151 52.9551972 5.779859886228036
