# NUMBER X_IMAGE Y_IMAGE MAG_AUTO MAGERR_AUTO MAG_APER MAGERR_APER CLASS_STAR FLUX_AUTO FLUXERR_AUTO FLUX_APER FLUXERR_APER ALPHA_J2000 DELTA_J2000 SNR
# 1 NUMBER                 Running object number
# 2 X_IMAGE                Object position along x                                    [pixel]
# 3 Y_IMAGE                Object position along y                                    [pixel]
# 4 MAG_AUTO               Kron-like elliptical aperture magnitude                    [mag]
# 5 MAGERR_AUTO            RMS error for AUTO magnitude                               [mag]
# 6 MAG_APER               Fixed aperture magnitude vector                            [mag]
# 7 MAGERR_APER            RMS error vector for fixed aperture mag.                   [mag]
# 8 CLASS_STAR             S/G classifier output
# 9 FLUX_AUTO              Flux within a Kron-like elliptical aperture                [count]
# 10 FLUXERR_AUTO           RMS error for AUTO flux                                    [count]
# 11 FLUX_APER              Flux vector within fixed circular aperture(s)              [count]
# 12 FLUXERR_APER           RMS error vector for aperture flux(es)                     [count]
# 13 ALPHA_J2000            Right ascension of barycenter (J2000)                      [deg]
# 14 DELTA_J2000            Declination of barycenter (J2000)                          [deg]
786 2207.6558 613.9249 27.4456 0.0001 29.4167 0.0003 1.0 1.804526 0.0001938632 0.2937096 6.970356e-05 215.1624928 52.9636531 9.401326605565163
1296 8585.7891 785.2897 27.4521 0.0001 28.5333 0.0001 1.0 1.793703 0.0002135855 0.6626248 6.961482e-05 215.1033561 52.9241929 8.482036608290358
1722 7883.834 965.3345 28.25 0.0002 29.6005 0.0003 0.999 0.8602138 0.0001441164 0.247965 6.966807e-05 215.1077692 52.9296143 6.0285709190626475
1769 8561.8369 956.72 26.0573 0.0001 28.5771 0.0001 1.0 6.48166 0.0004890385 0.6364774 6.963257e-05 215.1017699 52.9252728 13.386423768271825
2507 7374.7666 1252.985 30.5555 0.0013 29.4409 0.0003 0.999 0.1028953 0.0001228114 0.2872512 6.965033e-05 215.1093195 52.9343964 0.846210148243567
2571 693.2176 1273.8145 29.046 0.0005 29.3236 0.0002 0.999 0.4132314 0.0001770303 0.3200019 6.963257e-05 215.1691864 52.9768158 2.3575834984180677
2765 9562.6865 1329.5841 28.1428 0.0002 28.8238 0.0001 1.0 0.9494716 0.0001706295 0.5070856 6.961482e-05 215.0888645 52.9209509 5.620167180938818
3189 3711.1279 1447.8164 27.1453 0.0001 27.8741 0.0001 1.0 2.379565 0.0002194383 1.216125 6.966807e-05 215.1402036 52.9586533 10.952329880426527
3481 2747.1089 1539.4988 28.7924 0.0004 29.0887 0.0002 1.0 0.5219546 0.0001938632 0.3973017 6.98453e-05 215.147911 52.9652537 2.7193100392441685
3489 2756.8665 1532.7416 28.8128 0.0004 30.2759 0.0006 0.999 0.5122501 0.0002033559 0.1331208 6.970356e-05 215.1478943 52.9651553 2.5441730532529427
3547 694.2742 1514.3534 26.7673 0.0001 27.8071 0.0001 1.0 3.370542 0.0002441081 1.293507 6.966807e-05 215.1666483 52.9781128 13.945655305989437
4819 2078.6189 1821.8158 28.3963 0.0002 29.0401 0.0002 1.0 0.7517581 0.0001568502 0.4155102 6.965033e-05 215.1509576 52.9710157 4.840769606924313
5003 8319.2656 1844.9655 27.3249 0.0001 28.688 0.0001 1.0 2.016685 0.000231234 0.574665 6.966807e-05 215.0946139 52.9316185 8.808617461100011
5063 773.3489 1892.937 28.2944 0.0002 29.1894 0.0002 1.0 0.8257285 0.0001532623 0.3621166 6.972129e-05 215.1619565 52.9796642 5.441558589424797
5927 9174.3506 2138.1587 28.3449 0.0002 28.7201 0.0001 1.0 0.7881926 0.0001275033 0.5579065 6.970356e-05 215.0838535 52.9277881 6.243560174520974
6296 8776.5557 2240.8384 27.474 0.0002 28.7075 0.0001 1.0 1.757889 0.0002575393 0.5644485 6.973902e-05 215.0863462 52.9308643 6.8939687651554555
7258 2732.3145 2515.7036 27.1138 0.0001 28.4412 0.0001 1.0 2.449562 0.0002349467 0.7213131 6.98453e-05 215.1377813 52.9706364 10.530293126057952
7290 1384.4495 2524.2556 30.4057 0.0009 29.7859 0.0004 0.999 0.1181261 9.913847e-05 0.2090414 6.970356e-05 215.1498187 52.9792167 1.2034416205939027
7336 4114.79 2538.1543 29.8531 0.0007 29.3685 0.0002 0.999 0.1965045 0.000132496 0.3070374 6.968582e-05 215.1251114 52.9620036 1.497928578975969
7526 10045.9941 2591.3918 28.3054 0.0002 28.8536 0.0002 1.0 0.8174313 0.0001451847 0.4933476 6.952597e-05 215.0712641 52.9247179 5.686588276863885
7829 3414.9658 2651.8015 28.3285 0.0002 28.9026 0.0002 0.999 0.8002043 0.0001430401 0.4715981 6.963257e-05 215.13021 52.967051 5.650208179384663
7967 3412.147 2685.5774 27.6381 0.0001 28.884 0.0002 1.0 1.511348 0.0001811719 0.4797326 6.968582e-05 215.1298802 52.9672518 8.425486954654668
8057 4258.4224 2707.7722 27.6615 0.0001 29.2984 0.0002 0.999 1.479161 0.0001524536 0.32752 6.966807e-05 215.1220365 52.9620127 9.799392142920862
8083 4257.7275 2716.6899 27.6869 0.0001 28.7789 0.0001 1.0 1.444868 0.00016548 0.5284849 6.98276e-05 215.121949 52.9620654 8.818689146724681
8333 6913.0151 2795.1245 99.0 99.0 30.3532 0.0006 0.941 -0.2737697 0.000160165 0.1239738 6.966807e-05 215.0972583 52.9456713 -1.7263908906440235
8626 2908.3032 2880.9854 29.1375 0.0004 29.6168 0.0003 0.999 0.3798298 0.0001240633 0.2442775 6.957929e-05 215.1323573 52.9715008 3.092196467448472
8635 2935.5737 2877.1462 27.3596 0.0001 28.8531 0.0002 1.0 1.953359 0.000251713 0.4935959 6.968582e-05 215.1321524 52.9713074 7.8378653069170054
8822 4119.3994 2937.7883 28.0839 0.0001 28.8374 0.0002 0.999 1.002444 0.0001313245 0.5007716 6.949039e-05 215.120868 52.9641389 7.709669102109659
9115 9679.0527 3009.1038 27.3668 0.0001 28.3561 0.0001 1.0 1.940363 0.0002178835 0.7801577 6.973902e-05 215.070167 52.9293037 8.994561910378712
9296 8098.3418 3055.6768 27.8253 0.0002 28.7981 0.0001 1.0 1.272058 0.0002361277 0.5192413 6.970356e-05 215.0838712 52.939572 5.441032881783882
9437 9288.7871 3104.2708 28.0557 0.0001 28.3986 0.0001 1.0 1.028751 0.0001386513 0.7501985 6.966807e-05 215.0726703 52.9322918 7.493896631333424
9482 2941.9465 3109.5176 29.8087 0.001 30.226 0.0005 0.999 0.2046976 0.0001921015 0.1393779 6.970356e-05 215.1296516 52.9725257 1.076225724421725
9786 8349.2588 3162.0151 27.4807 0.0001 27.9132 0.0001 1.0 1.747138 0.0001506179 1.173052 6.965033e-05 215.0804997 52.9385577 11.715801242747377
9883 9984.9609 3188.5007 27.7095 0.0001 28.4378 0.0001 1.0 1.4152 0.0001419556 0.7235801 6.968582e-05 215.065535 52.9283358 10.069007492483568
9887 8849.8633 3193.8562 27.7784 0.0001 28.1699 0.0001 1.0 1.328176 0.0001174076 0.926065 6.972129e-05 215.0756694 52.935558 11.425646721336609
9978 3651.7561 3224.8074 28.0081 0.0001 29.1387 0.0002 0.999 1.074947 0.0001443307 0.3794256 6.968582e-05 215.1220552 52.9686551 7.522283686007206
10712 10222.1152 3407.9246 27.9698 0.0001 28.6875 0.0001 0.995 1.113443 0.000148135 0.5749253 6.977447e-05 215.0610994 52.9280201 7.591571404462146
10949 7669.9448 3465.6829 28.5374 0.0001 28.6427 0.0001 1.0 0.6601707 7.500053e-05 0.599129 6.972129e-05 215.0834081 52.9445056 8.890235935666055
10978 9488.8945 3474.4797 28.9221 0.0002 28.969 0.0002 1.0 0.4631943 7.54115e-05 0.4436065 6.979219e-05 215.0669815 52.9330271 6.203645902813232
11097 2767.0869 3494.4434 99.0 99.0 30.3905 0.0006 0.999 -0.5433273 0.0001804883 0.1197906 6.965033e-05 215.1271764 52.9757181 -3.0404218611400293
11395 10826.6055 3542.0095 27.3637 0.0001 27.8639 0.0001 1.0 1.945899 0.0002114038 1.227628 6.952597e-05 215.0542644 52.9249143 9.296701336494424
11630 3624.3711 3622.7246 27.6964 0.0001 28.4873 0.0001 1.0 1.43241 0.0001677063 0.6913332 6.968582e-05 215.1181168 52.9709836 8.62659363422841
11754 3390.3059 3640.8723 27.6108 0.0001 28.1013 0.0001 1.0 1.549859 0.0001727895 0.9865046 6.977447e-05 215.120031 52.9725643 9.059332829830517
11822 4444.7344 3674.0681 29.2795 0.0003 29.3675 0.0002 0.999 0.3332744 9.235985e-05 0.307326 6.972129e-05 215.1102003 52.9660657 3.644518088758265
12088 10618.4756 3728.9189 27.9221 0.0001 28.5851 0.0001 1.0 1.163463 0.0001395401 0.6318023 6.977447e-05 215.0541671 52.9272447 8.42121820179289
12423 1550.4949 3824.1147 29.8279 0.0007 29.2495 0.0002 0.982 0.2011246 0.0001287096 0.3426288 6.98453e-05 215.1346545 52.9852079 1.5782493768918557
13199 9481.1953 4033.5769 27.8621 0.0001 28.922 0.0002 1.0 1.229602 0.0001626543 0.4632211 6.963257e-05 215.0611718 52.9361012 7.635199438317955
13291 10620.5586 4067.2268 28.8696 0.0002 29.1972 0.0002 1.0 0.4861547 0.0001097895 0.3595285 6.970356e-05 215.0505912 52.9290618 4.472342500876678
13623 2342.3025 4185.4761 28.8052 0.0003 28.916 0.0002 1.0 0.5158433 0.0001572438 0.4657934 6.98099e-05 215.1237294 52.9821511 3.313337206300026
14208 3172.7412 4402.1143 27.4342 0.0001 28.7523 0.0001 1.0 1.82363 0.0001996749 0.5416142 6.977447e-05 215.1139809 52.9780649 9.224325641329983
14464 9786.7168 4551.9751 26.8647 0.0001 29.6034 0.0003 1.0 3.081358 0.0002397646 0.2473206 6.963257e-05 215.0529776 52.9369695 12.980112910746625
14875 829.0549 4667.0513 28.9257 0.0003 29.2362 0.0002 1.0 0.4616574 0.0001329617 0.3468379 6.970356e-05 215.1322795 52.9943425 3.5068292147287528
14955 2503.5557 4692.7925 28.4073 0.0002 28.5945 0.0001 1.0 0.7441946 0.0001097895 0.6263311 6.968582e-05 215.1169421 52.9838775 6.8461605709106985
15130 1076.6282 4775.5669 28.1932 0.0002 28.8107 0.0001 1.0 0.9064505 0.0001726105 0.5132392 6.968582e-05 215.1289097 52.9933626 5.303935768681511
15320 797.137 4827.2383 27.5384 0.0001 29.276 0.0002 1.0 1.65669 0.0001785947 0.3343495 6.966807e-05 215.1308814 52.9954124 9.369017669617296
15494 8750.4131 4915.3184 27.8398 0.0002 28.9002 0.0002 1.0 1.255166 0.0001791131 0.4726294 6.965033e-05 215.0584597 52.9455036 7.077749533674533
15532 7519.4141 4916.168 29.8617 0.0007 30.4372 0.0007 0.964 0.1949473 0.0001179329 0.1147484 6.966807e-05 215.0695058 52.9533097 1.6695661092027754
15837 9067.5967 5016.811 27.8055 0.0001 28.201 0.0001 1.0 1.295377 0.0001765058 0.8999457 6.949039e-05 215.0545444 52.9440423 7.412395343382484
15894 9083.9883 5022.5181 27.7932 0.0001 28.6351 0.0001 0.999 1.310227 0.0001343492 0.6033223 6.965033e-05 215.0543372 52.9439693 9.849922961952881
15935 7316.8765 5027.7856 29.7107 0.0006 29.4246 0.0003 0.999 0.2240423 0.0001248084 0.2915827 6.968582e-05 215.070151 52.9551972 1.8130408129581024
