# NUMBER X_IMAGE Y_IMAGE MAG_AUTO MAGERR_AUTO MAG_APER MAGERR_APER CLASS_STAR FLUX_AUTO FLUXERR_AUTO FLUX_APER FLUXERR_APER ALPHA_J2000 DELTA_J2000 SNR
# 1 NUMBER                 Running object number
# 2 X_IMAGE                Object position along x                                    [pixel]
# 3 Y_IMAGE                Object position along y                                    [pixel]
# 4 MAG_AUTO               Kron-like elliptical aperture magnitude                    [mag]
# 5 MAGERR_AUTO            RMS error for AUTO magnitude                               [mag]
# 6 MAG_APER               Fixed aperture magnitude vector                            [mag]
# 7 MAGERR_APER            RMS error vector for fixed aperture mag.                   [mag]
# 8 CLASS_STAR             S/G classifier output
# 9 FLUX_AUTO              Flux within a Kron-like elliptical aperture                [count]
# 10 FLUXERR_AUTO           RMS error for AUTO flux                                    [count]
# 11 FLUX_APER              Flux vector within fixed circular aperture(s)              [count]
# 12 FLUXERR_APER           RMS error vector for aperture flux(es)                     [count]
# 13 ALPHA_J2000            Right ascension of barycenter (J2000)                      [deg]
# 14 DELTA_J2000            Declination of barycenter (J2000)                          [deg]
786 2207.6558 613.9249 28.6595 0.0966 28.6909 0.0358 0.961 0.5899217 0.05248468 0.5731018 0.01887088 215.1624928 52.9636531 6.222736820935176
1296 8585.7891 785.2897 27.5146 0.0371 29.0589 0.0501 0.001 1.693403 0.05782411 0.4083776 0.01884685 215.1033561 52.9241929 16.213283747730834
1722 7883.834 965.3345 28.1064 0.0432 29.1117 0.0527 0.081 0.9818864 0.03901669 0.3889711 0.01886127 215.1077692 52.9296143 13.932544447824764
1769 8561.8369 956.72 25.9149 0.0195 28.7947 0.0393 0.007 7.390279 0.1323976 0.5208607 0.01885166 215.1017699 52.9252728 30.902978322643307
2507 7374.7666 1252.985 27.7808 0.0272 28.8117 0.0399 0.104 1.325201 0.03324878 0.5127645 0.01885647 215.1093195 52.9343964 22.06610376771719
2571 693.2176 1273.8145 26.982 0.0188 29.4347 0.0709 0.589 2.765631 0.0479275 0.2888946 0.01885166 215.1691864 52.9768158 31.946925888686035
2765 9562.6865 1329.5841 28.2376 0.0577 28.9451 0.0451 0.002 0.8700725 0.0461946 0.4534844 0.01884685 215.0888645 52.9209509 10.427587600606996
3189 3711.1279 1447.8164 27.3705 0.0334 28.0225 0.0193 0.0 1.933711 0.05940863 1.060706 0.01886127 215.1402036 52.9586533 18.0202846106702
3481 2747.1089 1539.4988 28.3384 0.0719 30.9017 0.2745 0.388 0.792937 0.05248468 0.07480209 0.01890925 215.147911 52.9652537 8.364225738062991
3489 2756.8665 1532.7416 28.2698 0.0708 31.0088 0.3024 0.373 0.8447039 0.05505463 0.06778073 0.01887088 215.1478943 52.9651553 8.494352248975243
3547 694.2742 1514.3534 27.642 0.0477 28.3624 0.0264 0.0 1.505884 0.0660875 0.7756004 0.01886127 215.1666483 52.9781128 12.615132346056365
4819 2078.6189 1821.8158 28.6484 0.0774 28.9791 0.0466 0.069 0.5960094 0.04246414 0.4394901 0.01885647 215.1509576 52.9710157 7.77052553335591
5003 8319.2656 1844.9655 27.0095 0.0252 28.64 0.0341 0.009 2.696434 0.06260209 0.6006518 0.01886127 215.0946139 52.9316185 23.846276624630264
5063 773.3489 1892.937 28.1804 0.0491 28.9447 0.0452 0.004 0.9171988 0.04149279 0.4536702 0.01887568 215.1619565 52.9796642 12.238000183742763
5927 9174.3506 2138.1587 28.4682 0.0533 28.8752 0.0424 0.001 0.7036167 0.03451904 0.483634 0.01887088 215.0838535 52.9277881 11.284882592940011
6296 8776.5557 2240.8384 27.5434 0.0459 28.64 0.0341 0.001 1.649139 0.06972373 0.6006132 0.01888048 215.0863462 52.9308643 13.09472147531407
7258 2732.3145 2515.7036 27.7843 0.0523 29.1048 0.0525 0.057 1.321015 0.06360724 0.391455 0.01890925 215.1377813 52.9706364 11.497960522261303
7290 1384.4495 2524.2556 29.0905 0.0735 29.3625 0.0664 0.085 0.3966494 0.0268398 0.3087551 0.01887088 215.1498187 52.9792167 8.181767648119584
7336 4114.79 2538.1543 27.8158 0.0304 29.094 0.0518 0.502 1.283188 0.03587071 0.3953903 0.01886607 215.1251114 52.9620036 19.80477588651019
7526 10045.9941 2591.3918 28.9356 0.0933 29.2822 0.0615 0.084 0.4574827 0.03930592 0.3324521 0.0188228 215.0712641 52.9247179 6.443715023105933
7829 3414.9658 2651.8015 28.3414 0.0532 29.5463 0.0785 0.384 0.7907889 0.0387253 0.2606663 0.01885166 215.13021 52.967051 11.305385851291017
7967 3412.147 2685.5774 28.2679 0.063 29.5319 0.0776 0.514 0.8461431 0.04904876 0.2641361 0.01886607 215.1298802 52.9672518 9.55070432877406
8057 4258.4224 2707.7722 27.7958 0.0343 29.5052 0.0757 0.278 1.307067 0.04127382 0.270729 0.01886127 215.1220365 52.9620127 17.532457698608944
8083 4257.7275 2716.6899 27.6685 0.0331 28.6171 0.0335 0.046 1.469682 0.04480048 0.6134315 0.01890446 215.121949 52.9620654 18.16185999926786
8333 6913.0151 2795.1245 27.6542 0.0316 28.891 0.043 0.004 1.489073 0.04336155 0.4766559 0.01886127 215.0972583 52.9456713 19.012131369612018
8626 2908.3032 2880.9854 28.4854 0.0527 29.7141 0.0916 0.361 0.6925138 0.03358772 0.2233486 0.01883723 215.1323573 52.9715008 11.414779422181676
8635 2935.5737 2877.1462 26.6196 0.0192 28.4911 0.0297 0.0 3.861657 0.06814637 0.6889067 0.01886607 215.1321524 52.9713074 31.37260524529773
8822 4119.3994 2937.7883 28.2834 0.0463 29.4277 0.0703 0.363 0.8341331 0.03555354 0.2907558 0.01881317 215.120868 52.9641389 12.988892474645278
9115 9679.0527 3009.1038 27.3644 0.0329 28.2951 0.0248 0.0 1.944677 0.05898769 0.8251996 0.01888048 215.070167 52.9293037 18.251800121516876
9296 8098.3418 3055.6768 27.0013 0.0256 28.7851 0.039 0.001 2.716872 0.06392696 0.5254742 0.01887088 215.0838712 52.939572 23.52906888361342
9437 9288.7871 3104.2708 28.1706 0.044 28.8871 0.0428 0.011 0.9255084 0.03753712 0.4783696 0.01886127 215.0726703 52.9322918 13.650200534617467
9482 2941.9465 3109.5176 27.6403 0.0374 28.96 0.0458 0.08 1.508342 0.05200773 0.4473089 0.01887088 215.1296516 52.9725257 16.056524317827368
9786 8349.2588 3162.0151 27.2789 0.021 27.8041 0.0158 0.027 2.104092 0.04077686 1.297051 0.01885647 215.0804997 52.9385577 28.56738978822793
9883 9984.9609 3188.5007 27.9098 0.0355 28.3557 0.0263 0.0 1.17677 0.0384317 0.7803947 0.01886607 215.065535 52.9283358 16.952025934319845
9887 8849.8633 3193.8562 27.9905 0.0316 28.2134 0.023 0.706 1.092496 0.0317858 0.8897362 0.01887568 215.0756694 52.935558 19.028577556015577
9978 3651.7561 3224.8074 28.8249 0.0838 29.6077 0.0832 0.258 0.5065743 0.03907471 0.2463309 0.01886607 215.1220552 52.9686551 7.177397598318708
10712 10222.1152 3407.9246 28.0504 0.0421 28.7544 0.038 0.34 1.03387 0.04010467 0.5405428 0.01889007 215.0610994 52.9280201 14.272189450754736
10949 7669.9448 3465.6829 28.7248 0.0397 28.7636 0.0382 0.003 0.5555301 0.02030493 0.5359844 0.01887568 215.0834081 52.9445056 15.146968212301152
10978 9488.8945 3474.4797 29.3114 0.0685 29.2887 0.0621 0.579 0.323619 0.02041619 0.3304771 0.01889487 215.0669815 52.9330271 8.77564261353367
11097 2767.0869 3494.4434 28.9191 0.1142 29.2807 0.0615 0.084 0.4645019 0.04886367 0.3329108 0.01885647 215.1271764 52.9757181 5.262850434627608
11395 10826.6055 3542.0095 27.6559 0.0418 27.9376 0.0178 0.001 1.48676 0.05723345 1.147005 0.0188228 215.0542644 52.9249143 14.381711023885506
11630 3624.3711 3622.7246 27.8487 0.0396 28.7306 0.0371 0.018 1.244886 0.0454032 0.5525293 0.01886607 215.1181168 52.9709836 15.179684167195262
11754 3390.3059 3640.8723 27.7907 0.0387 28.3204 0.0254 0.0 1.313237 0.04677937 0.806206 0.01889007 215.120031 52.9725643 15.542051983812522
11822 4444.7344 3674.0681 29.0663 0.0669 29.3719 0.067 0.666 0.4056037 0.02500462 0.3060938 0.01887568 215.1102003 52.9660657 8.980515457983362
12088 10618.4756 3728.9189 27.6929 0.0285 28.385 0.027 0.0 1.437027 0.03777775 0.7596696 0.01889007 215.0541671 52.9272447 21.059519373440715
12423 1550.4949 3824.1147 28.2601 0.0444 28.6197 0.0336 0.002 0.8522194 0.03484562 0.6119455 0.01890925 215.1346545 52.9852079 13.540130048539814
13199 9481.1953 4033.5769 28.2995 0.0582 29.3255 0.0641 0.058 0.821893 0.04403547 0.3194658 0.01885166 215.0611718 52.9361012 10.33313875360022
13291 10620.5586 4067.2268 28.7965 0.0621 28.8623 0.0419 0.001 0.5200265 0.02972337 0.4894366 0.01887088 215.0505912 52.9290618 9.68605750946141
13623 2342.3025 4185.4761 28.0713 0.0456 28.4514 0.0287 0.003 1.014132 0.0425707 0.7145765 0.01889966 215.1237294 52.9821511 13.188740123136332
14208 3172.7412 4402.1143 27.5879 0.0371 28.6784 0.0354 0.002 1.582841 0.05405808 0.5797534 0.01889007 215.1139809 52.9780649 16.210495504649813
14464 9786.7168 4551.9751 27.0477 0.0271 28.9123 0.0438 0.007 2.603213 0.06491159 0.4673796 0.01885166 215.0529776 52.9369695 22.20276553370515
14875 829.0549 4667.0513 28.7659 0.0731 29.0945 0.0519 0.001 0.5348749 0.03599679 0.3952012 0.01887088 215.1322795 52.9943425 8.226366597882755
14955 2503.5557 4692.7925 28.4964 0.0471 28.8576 0.0417 0.001 0.6855426 0.02972337 0.4915316 0.01886607 215.1169421 52.9838775 12.768974367240322
15130 1076.6282 4775.5669 28.0822 0.0506 28.8399 0.041 0.0 1.003944 0.04673092 0.4996204 0.01886607 215.1289097 52.9933626 11.893913424345163
15320 797.137 4827.2383 27.7795 0.0396 28.907 0.0436 0.095 1.326801 0.04835102 0.4697068 0.01886127 215.1308814 52.9954124 15.192168389208746
15494 8750.4131 4915.3184 27.9847 0.0479 28.6908 0.0357 0.001 1.098291 0.04849137 0.5731958 0.01885647 215.0584597 52.9455036 12.539279594080346
15532 7519.4141 4916.168 28.3424 0.0439 28.5884 0.0325 0.076 0.7900602 0.03192803 0.6298588 0.01886127 215.0695058 52.9533097 13.699593383180858
15837 9067.5967 5016.811 28.3475 0.066 29.2169 0.0579 0.078 0.7863113 0.04778549 0.3530504 0.01881317 215.0545444 52.9440423 9.109993954629322
15894 9083.9883 5022.5181 28.6336 0.0654 29.1066 0.0524 0.662 0.6041607 0.03637242 0.3908057 0.01885647 215.0543372 52.9439693 9.19601963083567
15935 7316.8765 5027.7856 28.3975 0.0489 29.9446 0.1134 0.392 0.7509345 0.03378944 0.180626 0.01886607 215.070151 52.9551972 12.303840112029082
