# NUMBER X_IMAGE Y_IMAGE MAG_AUTO MAGERR_AUTO MAG_APER MAGERR_APER CLASS_STAR FLUX_AUTO FLUXERR_AUTO FLUX_APER FLUXERR_APER ALPHA_J2000 DELTA_J2000 SNR
# 1 NUMBER                 Running object number
# 2 X_IMAGE                Object position along x                                    [pixel]
# 3 Y_IMAGE                Object position along y                                    [pixel]
# 4 MAG_AUTO               Kron-like elliptical aperture magnitude                    [mag]
# 5 MAGERR_AUTO            RMS error for AUTO magnitude                               [mag]
# 6 MAG_APER               Fixed aperture magnitude vector                            [mag]
# 7 MAGERR_APER            RMS error vector for fixed aperture mag.                   [mag]
# 8 CLASS_STAR             S/G classifier output
# 9 FLUX_AUTO              Flux within a Kron-like elliptical aperture                [count]
# 10 FLUXERR_AUTO           RMS error for AUTO flux                                    [count]
# 11 FLUX_APER              Flux vector within fixed circular aperture(s)              [count]
# 12 FLUXERR_APER           RMS error vector for aperture flux(es)                     [count]
# 13 ALPHA_J2000            Right ascension of barycenter (J2000)                      [deg]
# 14 DELTA_J2000            Declination of barycenter (J2000)                          [deg]
786 2207.6558 613.9249 27.9726 0.0002 28.672 0.0001 1.0 1.110606 0.0001896224 0.5831968 6.817878e-05 215.1624928 52.9636531 6.325489393658134
1296 8585.7891 785.2897 27.3092 0.0001 28.9033 0.0002 1.0 2.04612 0.0002089133 0.4712698 6.809198e-05 215.1033561 52.9241929 10.577639623709931
1722 7883.834 965.3345 28.3614 0.0002 28.88 0.0002 1.0 0.7763461 0.0001409638 0.4814906 6.814407e-05 215.1077692 52.9296143 5.948007843148384
1769 8561.8369 956.72 25.4232 0.0 28.6179 0.0001 0.996 11.6236 0.0004783407 0.6130058 6.810935e-05 215.1017699 52.9252728 26.243821610830942
2507 7374.7666 1252.985 28.6631 0.0002 29.9561 0.0004 1.0 0.5879697 0.0001201248 0.1787137 6.812671e-05 215.1093195 52.9343964 5.286229621193958
2571 693.2176 1273.8145 27.1598 0.0001 29.3526 0.0002 1.0 2.347888 0.0001731577 0.3115805 6.810935e-05 215.1691864 52.9768158 14.64398660873874
2765 9562.6865 1329.5841 27.8383 0.0001 28.4926 0.0001 1.0 1.25691 0.0001668969 0.687947 6.809198e-05 215.0888645 52.9209509 8.133541126288145
3189 3711.1279 1447.8164 27.233 0.0001 27.971 0.0001 0.863 2.194879 0.000214638 1.112259 6.814407e-05 215.1402036 52.9586533 11.04403376848461
3481 2747.1089 1539.4988 27.5332 0.0001 30.4001 0.0006 1.0 1.664744 0.0001896224 0.1187282 6.831742e-05 215.147911 52.9652537 9.481598798454192
3489 2756.8665 1532.7416 28.1399 0.0002 29.0917 0.0002 1.0 0.9520025 0.0001989074 0.3962001 6.817878e-05 215.1478943 52.9651553 5.169052031246701
3547 694.2742 1514.3534 27.0034 0.0001 28.2546 0.0001 0.978 2.71186 0.0002387682 0.856577 6.814407e-05 215.1666483 52.9781128 12.266326922931949
4819 2078.6189 1821.8158 28.4037 0.0002 29.481 0.0003 1.0 0.7466508 0.0001534191 0.2768276 6.812671e-05 215.1509576 52.9710157 5.256078702065127
5003 8319.2656 1844.9655 26.9254 0.0001 28.3739 0.0001 0.999 2.913684 0.0002261757 0.7674376 6.814407e-05 215.0946139 52.9316185 13.91298322498836
5063 773.3489 1892.937 28.4538 0.0002 28.9282 0.0002 1.0 0.7130067 0.0001499097 0.4606016 6.819612e-05 215.1619565 52.9796642 5.136740557815804
5927 9174.3506 2138.1587 28.1022 0.0001 28.4969 0.0001 1.0 0.9856398 0.0001247142 0.685275 6.817878e-05 215.0838535 52.9277881 8.53544330958303
6296 8776.5557 2240.8384 27.2231 0.0001 28.2633 0.0001 0.997 2.21487 0.0002519056 0.8497526 6.821346e-05 215.0863462 52.9308643 9.495857178244547
7258 2732.3145 2515.7036 27.1315 0.0001 29.0992 0.0002 1.0 2.409878 0.0002298072 0.3934712 6.831742e-05 215.1377813 52.9706364 11.325442544881101
7290 1384.4495 2524.2556 28.7233 0.0002 29.1042 0.0002 1.0 0.5562497 9.69698e-05 0.3916868 6.817878e-05 215.1498187 52.9792167 6.1952244513240196
7336 4114.79 2538.1543 28.1247 0.0001 29.3056 0.0002 1.0 0.9654695 0.0001295976 0.325369 6.816143e-05 215.1251114 52.9620036 8.045728161632622
7526 10045.9941 2591.3918 28.0628 0.0002 28.6096 0.0001 1.0 1.022119 0.0001420088 0.6176919 6.800507e-05 215.0712641 52.9247179 7.7733810862425425
7829 3414.9658 2651.8015 28.1115 0.0002 29.7014 0.0003 1.0 0.9772513 0.000139911 0.2259624 6.810935e-05 215.13021 52.967051 7.54359131161953
7967 3412.147 2685.5774 27.1293 0.0001 28.886 0.0002 1.0 2.414764 0.0001772088 0.4788659 6.816143e-05 215.1298802 52.9672518 14.71679239405718
8057 4258.4224 2707.7722 27.6473 0.0001 28.701 0.0001 1.0 1.498587 0.0001491186 0.5678063 6.814407e-05 215.1220365 52.9620127 10.85360216632935
8083 4257.7275 2716.6899 27.8477 0.0001 28.8722 0.0002 1.0 1.246028 0.0001618601 0.4849855 6.830011e-05 215.121949 52.9620654 8.31403316814953
8333 6913.0151 2795.1245 27.9322 0.0001 28.415 0.0001 1.0 1.152702 0.0001566614 0.7389469 6.814407e-05 215.0972583 52.9456713 7.94655326710983
8626 2908.3032 2880.9854 27.5067 0.0001 28.5658 0.0001 1.0 1.705765 0.0001213494 0.6430928 6.805723e-05 215.1323573 52.9715008 15.18117271284407
8635 2935.5737 2877.1462 25.6523 0.0 27.9071 0.0001 1.0 9.411964 0.0002462067 1.179731 6.816143e-05 215.1321524 52.9713074 41.286127144387216
8822 4119.3994 2937.7883 28.1602 0.0001 29.731 0.0003 1.0 0.9343554 0.0001284517 0.2198888 6.797028e-05 215.120868 52.9641389 7.855900949539789
9115 9679.0527 3009.1038 27.3489 0.0001 28.2079 0.0001 0.997 1.972679 0.0002131172 0.8942278 6.821346e-05 215.070167 52.9293037 9.996815461164092
9296 8098.3418 3055.6768 27.0789 0.0001 28.5034 0.0001 0.998 2.529673 0.0002309624 0.6811786 6.817878e-05 215.0838712 52.939572 11.828968005181794
9437 9288.7871 3104.2708 28.5864 0.0002 28.9243 0.0002 1.0 0.6310143 0.0001356182 0.4622625 6.814407e-05 215.0726703 52.9322918 5.025103149872216
9482 2941.9465 3109.5176 27.5648 0.0001 29.011 0.0002 1.0 1.616909 0.0001878993 0.4267987 6.817878e-05 215.1296516 52.9725257 9.293604180537129
9786 8349.2588 3162.0151 27.349 0.0001 27.6679 0.0001 0.973 1.972508 0.0001473231 1.470396 6.812671e-05 215.0804997 52.9385577 14.460112772538727
9883 9984.9609 3188.5007 27.8535 0.0001 28.1814 0.0001 0.999 1.239382 0.0001388503 0.9163382 6.816143e-05 215.065535 52.9283358 9.640112840951728
9887 8849.8633 3193.8562 28.5934 0.0002 28.861 0.0002 0.991 0.6269835 0.0001148393 0.4899944 6.819612e-05 215.0756694 52.935558 5.896432493057691
9978 3651.7561 3224.8074 28.0711 0.0002 29.292 0.0002 1.0 1.014335 0.0001411734 0.3294592 6.816143e-05 215.1220552 52.9686551 7.759831526335698
10712 10222.1152 3407.9246 28.2151 0.0002 28.9041 0.0002 1.0 0.8883302 0.0001448946 0.4709488 6.824813e-05 215.0610994 52.9280201 6.621341416450302
10949 7669.9448 3465.6829 28.9297 0.0002 28.9757 0.0002 1.0 0.4599815 7.335988e-05 0.4408766 6.819612e-05 215.0834081 52.9445056 6.771821600580591
10978 9488.8945 3474.4797 29.0156 0.0002 29.0227 0.0002 1.0 0.4249695 7.376185e-05 0.4221913 6.826546e-05 215.0669815 52.9330271 6.222282385813262
11097 2767.0869 3494.4434 28.2422 0.0002 29.1746 0.0002 1.0 0.8664539 0.0001765401 0.367089 6.812671e-05 215.1271764 52.9757181 5.300609957737648
11395 10826.6055 3542.0095 27.1752 0.0001 28.1245 0.0001 0.995 2.314781 0.0002067793 0.9656544 6.800507e-05 215.0542644 52.9249143 12.090008429277011
11630 3624.3711 3622.7246 28.2597 0.0002 28.797 0.0001 1.0 0.8526037 0.0001640377 0.5197697 6.816143e-05 215.1181168 52.9709836 5.613416891360949
11754 3390.3059 3640.8723 27.2897 0.0001 28.0802 0.0001 0.997 2.083158 0.0001690096 1.005848 6.824813e-05 215.120031 52.9725643 13.311732824644281
11822 4444.7344 3674.0681 28.7862 0.0002 28.9763 0.0002 1.0 0.5249416 9.033945e-05 0.4406567 6.819612e-05 215.1102003 52.9660657 6.2756296169613615
12088 10618.4756 3728.9189 27.713 0.0001 28.3919 0.0001 0.999 1.410652 0.0001364876 0.75484 6.824813e-05 215.0541671 52.9272447 11.162216640925621
12423 1550.4949 3824.1147 28.1802 0.0001 28.4024 0.0001 1.0 0.9173344 0.0001258941 0.7475412 6.831742e-05 215.1346545 52.9852079 7.869480396619063
13199 9481.1953 4033.5769 27.8688 0.0001 28.7793 0.0001 1.0 1.222037 0.0001590962 0.5282864 6.810935e-05 215.0611718 52.9361012 8.295609574584434
13291 10620.5586 4067.2268 28.0353 0.0001 28.2569 0.0001 1.0 1.048273 0.0001073879 0.854781 6.817878e-05 215.0505912 52.9290618 10.542480484300373
13623 2342.3025 4185.4761 27.6522 0.0001 28.3607 0.0001 0.999 1.491869 0.0001538041 0.7768455 6.828279e-05 215.1237294 52.9821511 10.47578393553878
14208 3172.7412 4402.1143 27.9474 0.0002 28.3726 0.0001 1.0 1.136715 0.000195307 0.7683532 6.824813e-05 215.1139809 52.9780649 6.285756270896588
14464 9786.7168 4551.9751 27.5064 0.0001 28.5045 0.0001 0.998 1.706303 0.0002345197 0.6804574 6.810935e-05 215.0529776 52.9369695 7.857792927417185
14875 829.0549 4667.0513 28.0308 0.0001 28.6769 0.0001 1.0 1.05263 0.0001300532 0.5805646 6.817878e-05 215.1322795 52.9943425 8.741348924901502
14955 2503.5557 4692.7925 28.7286 0.0002 28.9965 0.0002 1.0 0.5535597 0.0001073879 0.432522 6.816143e-05 215.1169421 52.9838775 5.567149334329101
15130 1076.6282 4775.5669 27.6863 0.0001 28.4814 0.0001 1.0 1.445746 0.0001688346 0.695102 6.816143e-05 215.1289097 52.9933626 9.248138000149257
15320 797.137 4827.2383 28.0284 0.0002 29.0257 0.0002 1.0 1.054978 0.0001746879 0.4210464 6.814407e-05 215.1308814 52.9954124 6.5223535230545435
15494 8750.4131 4915.3184 27.7928 0.0001 28.6088 0.0001 1.0 1.310615 0.000175195 0.6181321 6.812671e-05 215.0584597 52.9455036 8.07936413710437
15532 7519.4141 4916.168 28.0742 0.0001 28.5267 0.0001 1.0 1.011373 0.0001153531 0.6666808 6.814407e-05 215.0695058 52.9533097 9.469037589800362
15837 9067.5967 5016.811 27.7943 0.0001 29.3238 0.0002 1.0 1.308873 0.0001726447 0.3199681 6.797028e-05 215.0545444 52.9440423 8.187814859071839
15894 9083.9883 5022.5181 27.824 0.0001 29.2571 0.0002 1.0 1.273489 0.0001314103 0.3402366 6.812671e-05 215.0543372 52.9439693 10.46621246584172
15935 7316.8765 5027.7856 27.7872 0.0001 29.2116 0.0002 1.0 1.31738 0.0001220782 0.3547925 6.816143e-05 215.070151 52.9551972 11.65458206297275
