# NUMBER X_IMAGE Y_IMAGE MAG_AUTO MAGERR_AUTO MAG_APER MAGERR_APER CLASS_STAR FLUX_AUTO FLUXERR_AUTO FLUX_APER FLUXERR_APER ALPHA_J2000 DELTA_J2000 SNR
# 1 NUMBER                 Running object number
# 2 X_IMAGE                Object position along x                                    [pixel]
# 3 Y_IMAGE                Object position along y                                    [pixel]
# 4 MAG_AUTO               Kron-like elliptical aperture magnitude                    [mag]
# 5 MAGERR_AUTO            RMS error for AUTO magnitude                               [mag]
# 6 MAG_APER               Fixed aperture magnitude vector                            [mag]
# 7 MAGERR_APER            RMS error vector for fixed aperture mag.                   [mag]
# 8 CLASS_STAR             S/G classifier output
# 9 FLUX_AUTO              Flux within a Kron-like elliptical aperture                [count]
# 10 FLUXERR_AUTO           RMS error for AUTO flux                                    [count]
# 11 FLUX_APER              Flux vector within fixed circular aperture(s)              [count]
# 12 FLUXERR_APER           RMS error vector for aperture flux(es)                     [count]
# 13 ALPHA_J2000            Right ascension of barycenter (J2000)                      [deg]
# 14 DELTA_J2000            Declination of barycenter (J2000)                          [deg]
904 1805.2131 673.7662 31.3741 0.7412 30.9045 0.2297 0.355 0.04841392 0.03304255 0.07461486 0.01578243 215.0727507 52.902559 0.5264607481928605
985 7198.2749 694.6001 99.0 99.0 33.0323 1.628 0.359 -0.1659942 0.07585657 0.010512 0.01575828 215.0241827 52.8684864 -0.7862651317084335
1212 911.5276 773.131 30.9355 0.5111 32.2459 0.7912 0.413 0.07251476 0.0341293 0.02169034 0.01580252 215.079726 52.9087597 0.7634284446384777
1361 7360.0806 830.0963 99.0 99.0 31.8419 0.5458 0.365 -0.09178454 0.03800143 0.03146752 0.01581457 215.02131 52.8681931 -0.8678384752205378
1841 10329.0566 1029.3977 35.1885 29.7748 99.0 99.0 0.347 0.001442777 0.03955649 -0.04424882 0.0157784 214.9926335 52.8504416 0.013105414658125631
2328 819.5631 1199.7782 30.0725 0.2667 30.6044 0.1743 0.394 0.1605549 0.03943595 0.09836444 0.01579047 215.0760685 52.9116516 1.4628525778889567
2699 9553.502 1339.0176 99.0 99.0 32.2904 0.8226 0.351 -0.09771432 0.03106212 0.02081931 0.01577036 214.996323 52.8570343 -1.130307020873012
3396 1756.4889 1549.9062 30.0747 0.3211 30.0609 0.1059 0.094 0.1602202 0.04737007 0.1622743 0.01582259 215.0639821 52.9076089 1.215297339902601
3420 6791.7158 1560.1951 30.5387 0.267 30.8573 0.2198 0.358 0.1044982 0.02569366 0.07793004 0.01577036 215.0187317 52.8757448 1.4613429243634424
3498 2923.2278 1588.8204 30.8369 0.3385 31.1446 0.2867 0.349 0.07940502 0.02474987 0.05980641 0.01578645 215.0531071 52.9004247 1.1527744483587188
3820 10562.0781 1652.4346 99.0 99.0 32.8934 1.4339 0.347 -0.0508728 0.03858164 0.01194695 0.01577438 214.9840037 52.8523306 -0.47377731397628514
3988 3476.1738 1690.3025 99.0 99.0 99.0 99.0 0.347 -0.08052575 0.02965065 -0.02944306 0.01577438 215.0470819 52.8974688 -0.9758203355575678
4304 10525.3477 1759.5771 29.9733 0.2031 30.5149 0.1605 0.358 0.1759165 0.03289815 0.10682 0.01579047 214.9832068 52.8531426 1.9213407931753002
4363 4630.5039 1780.8762 99.0 99.0 32.5191 1.0187 0.363 -0.1641314 0.03800143 0.01686391 0.01581858 215.0357807 52.8906411 -1.551890371862322
4573 9819.5088 1834.8004 30.6873 0.2247 30.664 0.1838 0.352 0.09113845 0.01885399 0.09310917 0.01575828 214.9887337 52.8580266 1.7368714245366628
5388 4308.5225 2061.48 34.7594 13.213 32.1528 0.7266 0.347 0.002142047 0.02606161 0.0236321 0.01581056 215.0357185 52.8942 0.02953228551766372
5857 10318.625 2180.9033 29.766 0.2782 30.8521 0.2187 0.367 0.212914 0.05453359 0.07830323 0.01577036 214.9806304 52.8567308 1.4028441798898625
5952 8043.1733 2226.6829 30.7224 0.25 30.7421 0.1978 0.355 0.08823898 0.02031262 0.08665084 0.01578243 215.0005197 52.8714116 1.5608595988011393
6036 1011.6597 2253.0847 31.0914 0.5729 31.3831 0.3576 0.353 0.06281258 0.03313846 0.04801608 0.01581055 215.0632753 52.9161342 0.6810572404330196
6301 8753.0176 2324.0527 32.2951 1.1239 31.8619 0.5548 0.349 0.02072839 0.02145252 0.03089156 0.01578243 214.9931405 52.8674356 0.3471814878112222
6401 4411.5718 2333.0276 99.0 99.0 31.9382 0.5951 0.349 -0.1641771 0.05980758 0.0287954 0.0157784 215.031941 52.8950153 -0.98633774850947
6534 962.105 2341.2427 30.5544 0.716 99.0 99.0 0.363 0.1030068 0.06790896 -0.01228829 0.01579047 215.0627934 52.9169253 0.5450145799317203
6949 4770.5503 2486.0032 34.4124 17.3341 32.0098 0.6359 0.357 0.002948835 0.04706759 0.02695884 0.01578645 215.0271154 52.8935666 0.02251115690966969
6986 9195.8779 2493.7566 32.5805 2.2187 31.8156 0.5317 0.354 0.01593669 0.03255874 0.03223671 0.01578243 214.9873926 52.8655437 0.17587327039989878
7014 3261.4429 2517.4507 99.0 99.0 99.0 99.0 0.347 -0.1045374 0.02587829 -0.03899667 0.01579449 215.0403149 52.9033042 -1.4514611743666217
7139 3279.4551 2538.3403 32.0582 1.2331 99.0 99.0 0.355 0.02578216 0.0292736 -0.0104452 0.01579851 215.0399338 52.903303 0.3164553696709663
7197 4759.6377 2501.8125 29.2764 0.2972 30.2923 0.1308 0.37 0.3342454 0.09146754 0.1311208 0.01578645 215.0270471 52.8937213 1.3130091251388198
7234 8588.291 2559.0876 30.8925 0.3193 31.2601 0.3196 0.361 0.07543864 0.02217993 0.05377146 0.01582259 214.9921457 52.8697508 1.2220894177033021
7463 3474.3845 2609.8005 99.0 99.0 31.3232 0.3372 0.351 -0.02674244 0.03841676 0.05073819 0.01575425 215.0374348 52.9024537 -0.2501206795263317
7907 1503.4718 2700.614 29.8704 0.2223 30.7746 0.2039 0.357 0.1934029 0.03959659 0.08409759 0.01578645 215.0541584 52.9154385 1.7549894068908458
8045 3260.541 2704.5627 99.0 99.0 33.6578 2.9023 0.356 -0.05018896 0.04389233 0.005908605 0.01579047 215.0383564 52.904322 -0.4108552728369626
8549 3532.9221 2860.3428 33.757 8.3141 32.0931 0.6872 0.36 0.005392581 0.04128397 0.02496669 0.01579851 215.0342765 52.9034377 0.04693367132836304
8556 4717.627 2856.8499 30.4863 0.211 30.7718 0.2034 0.356 0.1096656 0.02130406 0.08431016 0.01579047 215.0236922 52.8959075 1.8495979985035718
8954 7877.9414 2968.9441 30.6023 0.399 99.0 99.0 0.347 0.09855289 0.03620506 -0.005164332 0.01580252 214.9941994 52.8764717 0.9780687811565567
9466 8442.0654 3113.2302 99.0 99.0 33.9772 3.895 0.359 -0.01387575 0.03166925 0.004402666 0.01579047 214.9876316 52.8736732 -0.15743018014319882
9970 2189.6694 3215.8857 30.862 0.8194 99.0 99.0 0.352 0.07759256 0.0585472 -3.967793e-05 0.01581055 215.042586 52.9138763 0.47619327198568
10012 3845.0989 3232.9646 31.0825 0.651 31.3246 0.3382 0.351 0.063328 0.03795965 0.05067414 0.01578243 215.0275607 52.9034737 0.59943607699228
11053 9094.958 3484.0071 30.8088 0.4274 30.6159 0.1762 0.354 0.08148341 0.03206762 0.09733398 0.01579047 214.9778895 52.871535 0.9130020889326993
11328 2756.7869 3548.8022 30.6573 0.4419 99.0 99.0 0.347 0.09369159 0.03812651 -0.02530898 0.01575022 215.0339994 52.9120817 0.8829637226932127
11350 2751.1394 3546.5393 30.2842 0.2951 31.164 0.292 0.35 0.1321064 0.03589693 0.05874768 0.01579449 215.0340739 52.9121053 1.322317830076277
11508 1117.8119 3582.5793 32.1529 1.534 30.6449 0.1809 0.351 0.0236292 0.03337704 0.09476445 0.01578243 215.0483469 52.9226543 0.25437270207304186
11712 8255.791 3633.8535 30.4457 0.2463 31.342 0.3438 0.356 0.1138498 0.02581689 0.04986553 0.01578645 214.9838275 52.8776683 1.5845197325471816
11960 8583.8447 3691.8037 31.413 0.9714 33.7473 3.1516 0.36 0.04671002 0.04178069 0.005441173 0.01579047 214.9802811 52.8759004 0.4017017738625188
12015 8997.2744 3717.6919 31.7139 0.8215 99.0 99.0 0.359 0.03540515 0.02678234 -0.01548377 0.01581858 214.9763077 52.8734174 0.4749930157895091
12172 9891.1523 3762.4124 30.0852 0.3186 31.2207 0.3075 0.35 0.1586881 0.04655911 0.05576171 0.01578645 214.9678367 52.8679878 1.224641562327974
12342 8491.4053 3804.7847 30.3333 0.2605 30.936 0.2362 0.351 0.1262683 0.03028609 0.0724813 0.0157623 214.9799212 52.8770973 1.498029718362456
12539 6669.917 3875.6533 30.9191 0.5563 31.606 0.4387 0.355 0.07361741 0.03770798 0.03910298 0.01579449 214.9954889 52.8890346 0.7014820626058462
12812 1488.97 3934.1882 99.0 99.0 31.9958 0.6278 0.371 -0.02011685 0.02181925 0.02730719 0.01578645 215.0413199 52.9222035 -0.3312756109169655
13010 2323.0225 3996.2603 31.9203 0.6058 31.9723 0.6142 0.354 0.02927315 0.01632803 0.02790501 0.01578243 215.0331854 52.9172517 0.6441766414258181
13544 7273.8955 4183.7285 99.0 99.0 30.9954 0.2502 0.368 -0.03039332 0.03903147 0.06862211 0.01581056 214.9868403 52.8868685 -0.27979022591770186
13664 3913.9355 4223.8042 30.8918 0.7685 30.7647 0.202 0.355 0.07548738 0.05341634 0.08486494 0.01578645 215.0165267 52.908395 0.5077729119554055
13859 3908.532 4272.855 31.1504 0.4835 30.4417 0.1501 0.348 0.05949067 0.02648442 0.1142658 0.01579449 215.0160594 52.9086944 0.8071006515415479
13997 9226.6973 4334.0801 30.5092 0.2826 30.4445 0.1507 0.362 0.107377 0.02794228 0.1139767 0.01581457 214.9677747 52.8752921 1.3807616941065655
14686 8174.167 4580.2134 29.987 0.2636 31.0075 0.2526 0.358 0.1736961 0.0421588 0.06785903 0.01578243 214.9746099 52.8832998 1.4803729159985577
14702 8169.4971 4579.9326 29.7977 0.2 30.4792 0.1555 0.37 0.2067941 0.03808486 0.1103876 0.01580654 214.9746547 52.8833279 1.9509901853649982
14711 8353.5518 4593.1621 30.7053 0.4969 30.877 0.2241 0.349 0.08963685 0.04101401 0.07652388 0.01579047 214.9728676 52.8822317 0.7852784103163774
15238 2400.9509 4819.813 29.8384 0.2297 30.7815 0.2053 0.356 0.1991824 0.04212115 0.08356315 0.01579449 215.0238263 52.9212113 1.6991043251193285
