# NUMBER X_IMAGE Y_IMAGE MAG_AUTO MAGERR_AUTO MAG_APER MAGERR_APER CLASS_STAR FLUX_AUTO FLUXERR_AUTO FLUX_APER FLUXERR_APER ALPHA_J2000 DELTA_J2000 SNR
# 1 NUMBER                 Running object number
# 2 X_IMAGE                Object position along x                                    [pixel]
# 3 Y_IMAGE                Object position along y                                    [pixel]
# 4 MAG_AUTO               Kron-like elliptical aperture magnitude                    [mag]
# 5 MAGERR_AUTO            RMS error for AUTO magnitude                               [mag]
# 6 MAG_APER               Fixed aperture magnitude vector                            [mag]
# 7 MAGERR_APER            RMS error vector for fixed aperture mag.                   [mag]
# 8 CLASS_STAR             S/G classifier output
# 9 FLUX_AUTO              Flux within a Kron-like elliptical aperture                [count]
# 10 FLUXERR_AUTO           RMS error for AUTO flux                                    [count]
# 11 FLUX_APER              Flux vector within fixed circular aperture(s)              [count]
# 12 FLUXERR_APER           RMS error vector for aperture flux(es)                     [count]
# 13 ALPHA_J2000            Right ascension of barycenter (J2000)                      [deg]
# 14 DELTA_J2000            Declination of barycenter (J2000)                          [deg]
773 3973.7334 344.2685 27.9648 0.0408 28.2435 0.0252 0.011 1.118671 0.04200916 0.8653512 0.02008568 215.0169665 52.9749083 17.359852270552423
840 935.4463 368.7893 28.7658 0.0706 28.8023 0.0422 0.005 0.5349405 0.03479531 0.5172364 0.02007546 215.0440011 52.9943038 10.02241570358189
1001 3241.1348 441.3374 28.0429 0.048 29.203 0.061 0.036 1.041024 0.04597412 0.3576227 0.02008057 215.022523 52.9800785 14.761651899807978
1070 2484.5017 465.5284 27.95 0.0387 29.1078 0.0559 0.09 1.133963 0.04045387 0.3903715 0.02011121 215.0290642 52.9850067 18.273698395975465
1194 3578.4998 520.5799 29.056 0.0854 29.7318 0.0991 0.368 0.4094661 0.03219144 0.2197201 0.02004989 215.0186588 52.9783678 8.292112600461488
1439 2249.0586 620.6565 28.4678 0.0664 28.7436 0.04 0.002 0.7038839 0.04303466 0.5459535 0.02009079 215.0295454 52.9873383 10.662776312140027
1558 8832.4678 676.3865 27.3955 0.0349 28.3658 0.0282 0.0 1.88982 0.06073363 0.7731643 0.02007546 214.9698742 52.9458851 20.28517900543735
1580 4460.0117 674.226 27.5019 0.0296 29.6429 0.0914 0.057 1.713317 0.0466938 0.2384799 0.02007035 215.0091258 52.9736086 23.920273900817666
1768 8925.8018 745.7772 28.6948 0.0653 29.4182 0.0743 0.086 0.5710871 0.03435015 0.2933049 0.02005501 214.9683067 52.9456678 10.838304675845665
1909 2288.1631 820.6358 28.4602 0.0635 28.8989 0.0461 0.0 0.7087767 0.04145598 0.4731953 0.02009079 215.0270879 52.9881718 11.14576518265881
2312 8030.5112 996.8101 28.1272 0.0513 28.4862 0.0315 0.0 0.96324 0.0454692 0.692036 0.02005501 214.9736913 52.9527043 13.81035488638463
2351 812.2285 1006.9809 28.4026 0.0586 28.9201 0.047 0.001 0.7474409 0.04032686 0.4640327 0.02007035 215.0383865 52.9985369 12.082869757749549
2421 655.0709 1042.967 27.3158 0.0319 28.2841 0.0261 0.0 2.033611 0.05966842 0.8336073 0.02007035 215.0394199 52.9997278 22.21830822753477
2500 3233.4751 1067.3469 28.6624 0.0661 28.9358 0.0477 0.004 0.5883689 0.03581251 0.457376 0.02007546 215.0159987 52.9835119 10.710323560091151
2616 774.9089 1121.5703 27.832 0.0409 28.5643 0.0338 0.0 1.264219 0.04756463 0.6440301 0.02006012 215.0375149 52.9993932 17.327098061942245
3334 4133.0679 1404.1884 28.2667 0.0577 29.1684 0.059 0.001 0.8470659 0.04501563 0.3692031 0.02007035 215.004373 52.9796281 12.267088806021375
3379 3639.5564 1427.5503 28.6378 0.0608 28.9765 0.0495 0.002 0.6018747 0.03367138 0.44056 0.02008057 215.008558 52.9828842 11.652867678039923
3493 7289.9326 1457.3015 29.7175 0.1082 29.7488 0.1009 0.706 0.2226512 0.0221922 0.2163103 0.02009589 214.975484 52.9598908 6.540520714124782
4010 2997.0005 1676.2458 27.3425 0.0201 27.4757 0.0124 0.01 1.984212 0.03673184 1.755209 0.02007035 215.0117085 52.9883035 35.21543284844974
4457 4047.4998 1852.2758 26.5568 0.0187 28.4608 0.0308 0.001 4.091554 0.0705061 0.708432 0.0201061 215.0004211 52.982593 37.83112337996287
4983 1753.7067 2041.673 27.9501 0.0448 29.0475 0.0529 0.001 1.133865 0.04680354 0.4126794 0.0201061 215.0190266 52.9981632 15.79320564534221
5028 2487.9805 2097.3101 25.6962 0.0087 26.8412 0.0069 0.001 9.039451 0.07269146 3.148727 0.02005501 215.0118444 52.9938079 81.06741151450252
5258 2094.8276 2144.6575 28.647 0.0414 28.7658 0.0407 0.0 0.5967579 0.02276279 0.5349286 0.02007035 215.0148771 52.996557 17.09071878223188
5460 3150.1633 2257.4497 26.5519 0.0244 28.0154 0.0204 0.0 4.11018 0.09219896 1.06774 0.02007546 215.0042099 52.9904742 29.061796833716993
5497 6069.6899 2235.7412 28.3171 0.0496 28.8207 0.0429 0.002 0.8086834 0.03694074 0.5085312 0.02009589 214.9782315 52.9718383 14.271202885865309
5569 3175.8406 2310.8335 25.9848 0.0134 27.1678 0.0094 0.001 6.929164 0.08574086 2.330684 0.02008568 215.0034169 52.9905999 52.68423133661127
5591 4466.9512 2273.9998 28.1684 0.0425 28.6797 0.0376 0.006 0.9273651 0.03631043 0.5790803 0.02007035 214.9922126 52.982212 16.64972247205555
5602 3112.0 2267.9929 28.9927 0.0592 29.5255 0.0818 0.465 0.4340486 0.02364711 0.2657174 0.02001404 215.0044416 52.9907732 11.965970591163149
5611 529.0703 2280.623 28.6704 0.0541 28.876 0.0451 0.009 0.5840715 0.02909422 0.4832729 0.02007546 215.0275131 53.0072202 13.087206034910025
5613 2835.7795 2298.9255 27.4847 0.0302 28.2621 0.0256 0.0 1.740669 0.04836678 0.85066 0.02007035 215.0065963 52.9926922 23.461547942410057
5626 438.1209 2285.0027 28.6211 0.0785 28.691 0.038 0.0 0.6111546 0.04415263 0.5730864 0.02004477 215.0282843 53.0078205 9.023648088143334
5681 9519.1709 2369.1379 25.2152 0.007 26.3373 0.0044 0.027 14.07802 0.09048597 5.008411 0.02007546 214.9458909 52.9506712 101.42569083582794
5796 6559.8052 2357.9917 27.3398 0.0199 27.5876 0.0137 0.007 1.989165 0.03645144 1.583378 0.02002941 214.9725463 52.9693895 35.5749060983599
5801 8058.3477 2375.3765 26.7333 0.0138 27.0265 0.0082 0.012 3.477616 0.04403628 2.654712 0.02007546 214.9589222 52.9599752 51.48238331121521
5857 7104.6948 2376.0266 28.4232 0.0709 29.4034 0.0733 0.085 0.7333971 0.0478871 0.2973266 0.02005501 214.9674683 52.9660298 9.984085556673927
5893 6510.4414 2383.1228 27.9209 0.0272 28.109 0.0222 0.034 1.164788 0.02918225 0.9795455 0.02006524 214.9727244 52.9698384 26.02050716034576
5915 9999.5273 2387.4946 28.8287 0.0749 29.175 0.0595 0.009 0.5048246 0.03479531 0.3669592 0.020101 214.9413921 52.9477217 9.45817712174428
6273 10005.3359 2525.5527 28.1921 0.047 28.9416 0.0479 0.002 0.9072956 0.03929597 0.4549433 0.02007546 214.9398858 52.9484303 15.05179983077145
6485 4235.2725 2602.1321 26.7797 0.0215 28.3758 0.0285 0.0 3.332193 0.06595728 0.7661124 0.02008568 214.9908353 52.9854549 32.93480171756629
6496 9431.7295 2613.916 27.4801 0.0306 28.0576 0.0213 0.0 1.748161 0.04920801 1.027034 0.0201061 214.9440962 52.9525481 23.15971805220329
6663 1267.7227 2659.5024 28.0795 0.0513 28.6879 0.038 0.0 1.006528 0.04751066 0.5747079 0.0201061 215.016883 53.0045854 13.810914613267844
6705 2526.8557 2678.1091 27.0256 0.0304 28.7889 0.0417 0.0 2.656812 0.0742624 0.5236726 0.02008568 215.0053756 52.9967012 23.322735474748995
6709 2550.5986 2677.6062 27.4523 0.0336 28.61 0.0352 0.001 1.793387 0.05548051 0.6174337 0.02001916 215.0051676 52.9965479 21.072750037265337
6744 2364.9761 2736.9844 26.9289 0.0284 28.3004 0.0265 0.0 2.904438 0.07586845 0.8212327 0.02007035 215.0062092 52.9980461 24.956779485807342
6883 7896.3081 2756.1387 28.3199 0.0705 28.6649 0.0372 0.0 0.8065883 0.0523402 0.5870305 0.02009589 214.9563641 52.9630602 10.046254669508333
7076 7314.9077 2855.1262 26.7299 0.0232 28.0286 0.0207 0.0 3.488478 0.07457262 1.054816 0.02011121 214.9605354 52.9672841 30.496094853312112
7086 8834.4814 2824.3442 27.9948 0.0613 28.7409 0.0398 0.0 1.08817 0.06140567 0.5473439 0.02008057 214.9472335 52.9574749 11.552498404463302
7316 2913.1443 2895.0012 29.2286 0.0868 29.2541 0.0638 0.085 0.3492605 0.02792457 0.3411619 0.02004989 214.9996207 52.9954237 8.153622868857067
7559 4242.9839 3002.4724 28.9509 0.0869 29.0506 0.053 0.0 0.451075 0.03609788 0.4115101 0.02007035 214.9865477 52.9875696 8.146193162867183
8060 2318.8054 3221.5598 27.4065 0.0326 28.2678 0.0258 0.0 1.870636 0.05612405 0.8462202 0.02007546 215.0015174 53.0009584 21.72840902892788
8119 9790.7178 3235.8091 28.6121 0.0706 28.6842 0.0378 0.0 0.6162443 0.04007163 0.5766568 0.02005501 214.934327 52.9536278 10.025442479205363
8216 4045.8096 3306.4631 26.7282 0.0204 27.8167 0.017 0.0 3.494126 0.06548893 1.282081 0.02006012 214.9851144 52.9904631 34.782301079892434
8327 7219.708 3311.9502 28.5823 0.0712 29.0278 0.0519 0.001 0.6333953 0.04151781 0.4202333 0.02008057 214.956576 52.9703558 9.945532532255434
8746 7852.5527 3473.2344 28.3322 0.0639 28.4723 0.0311 0.0 0.7974755 0.04691302 0.7009231 0.02008057 214.949201 52.967211 11.081833000838571
9118 8176.2593 3603.085 27.1224 0.0258 29.0388 0.0525 0.035 2.430252 0.05774594 0.4159788 0.020101 214.94493 52.9658579 27.435791699295223
9171 8161.5859 3612.5317 27.9664 0.038 29.1503 0.0581 0.621 1.116982 0.03903399 0.3753784 0.02007546 214.9449621 52.9660021 18.654811758162566
9182 8137.5835 3625.0583 27.4952 0.0342 28.6352 0.0361 0.0 1.723914 0.05431236 0.6032795 0.02006524 214.9450453 52.966222 20.692099841362076
9192 8147.29 3620.8301 28.733 0.0674 29.5752 0.0858 0.079 0.5513316 0.03420048 0.2538207 0.02006012 214.9450028 52.9661376 10.509167805715007
9342 7292.9844 3670.5662 28.9278 0.0844 29.557 0.0844 0.088 0.460775 0.03581251 0.2581041 0.02006524 214.9521399 52.9718278 8.387678781799991
9409 3833.9612 3700.0181 28.8783 0.0696 28.9914 0.0502 0.002 0.4822528 0.03089024 0.4345626 0.02007546 214.9828687 52.9939338 10.17750016989185
9432 7283.6479 3713.0718 27.7514 0.0354 28.2975 0.0265 0.0 1.361539 0.04438441 0.8234049 0.02006524 214.9517757 52.9721167 19.998032856356545
9677 4423.2881 3795.1785 27.6723 0.0324 28.3425 0.0276 0.0 1.464446 0.04362664 0.7899996 0.02004989 214.9765753 52.9907094 21.883119851998686
9747 9706.4287 4328.8169 27.9738 0.0435 28.4424 0.0303 0.0 1.10935 0.04438441 0.7205098 0.02007035 214.9235652 52.9600641 16.293927496163633
9872 8111.813 3939.8762 27.6113 0.0361 28.359 0.028 0.0 1.549145 0.05155012 0.7780483 0.02007546 214.9419589 52.9680857 19.59070351242635
9940 8173.7183 3885.0823 28.2551 0.0395 28.4791 0.0313 0.086 0.8562031 0.03113836 0.6966006 0.0201061 214.9419812 52.9673969 17.92539372404327
9942 6125.2231 3840.5386 29.0284 0.0738 29.009 0.051 0.002 0.4199947 0.02856034 0.4275604 0.02006524 214.9608239 52.9801561 9.58667665990671
10059 7093.1152 3883.7649 27.3311 0.035 28.692 0.0381 0.0 2.005183 0.06462149 0.5725361 0.02006012 214.9516858 52.9742477 20.228547028705158
10198 7156.2783 3970.2351 27.2773 0.0304 28.2118 0.0244 0.0 2.107083 0.05902006 0.8910437 0.02005501 214.950208 52.9743139 23.273925484487815
11140 6924.1934 4355.8022 27.6774 0.0319 28.3465 0.0276 0.0 1.457668 0.04285547 0.7870646 0.02001916 214.948226 52.9778692 22.1737935876097
11251 1464.0138 4164.2412 28.0467 0.0433 28.4222 0.0297 0.0 1.037316 0.04139406 0.7340602 0.02007546 214.9992599 53.0114753 16.336563109779515
11474 2697.6885 4285.4258 28.4189 0.0541 28.6879 0.0379 0.0 0.7363091 0.03666194 0.574701 0.02005501 214.9869012 53.0043052 13.092795017966862
11481 4494.3574 3958.6548 27.5903 0.0365 29.1 0.0554 0.02 1.579351 0.05302187 0.3931803 0.02007035 214.9742144 52.9911418 19.41830249310332
11557 1432.5371 4399.5186 28.3092 0.0541 29.1876 0.0602 0.004 0.8145524 0.04058049 0.3627042 0.020101 214.9970624 53.0129466 13.085471739843458
11572 8591.9551 3900.0911 28.1229 0.0481 28.6424 0.0364 0.002 0.967047 0.04285547 0.5992825 0.02006524 214.9380732 52.9648235 14.71055176317049
11588 4177.7603 4041.0085 26.9752 0.0289 27.8947 0.0183 0.0 2.783005 0.07415871 1.193287 0.02007035 214.9761883 52.9935953 24.464675687454648
11591 1227.7424 4024.5164 28.6294 0.0636 29.2541 0.064 0.001 0.606497 0.03552486 0.3411802 0.02009589 215.0028556 53.0122185 11.129711961426448
11615 608.9289 4325.8994 27.4757 0.0371 28.375 0.0285 0.0 1.755185 0.05992579 0.7666716 0.02011121 215.0052387 53.0177722 19.09399364363824
11761 4352.5317 4204.6392 28.412 0.0615 28.8945 0.0459 0.001 0.7409731 0.04194806 0.4751269 0.02006012 214.9728947 52.9933706 11.515378151480663
11909 1119.0022 4114.3066 28.6355 0.1 29.6791 0.0944 0.081 0.6031425 0.05552672 0.2306532 0.02004477 215.0028861 53.0133935 7.081178704144599
