# NUMBER X_IMAGE Y_IMAGE MAG_AUTO MAGERR_AUTO MAG_APER MAGERR_APER CLASS_STAR FLUX_AUTO FLUXERR_AUTO FLUX_APER FLUXERR_APER ALPHA_J2000 DELTA_J2000 SNR
# 1 NUMBER                 Running object number
# 2 X_IMAGE                Object position along x                                    [pixel]
# 3 Y_IMAGE                Object position along y                                    [pixel]
# 4 MAG_AUTO               Kron-like elliptical aperture magnitude                    [mag]
# 5 MAGERR_AUTO            RMS error for AUTO magnitude                               [mag]
# 6 MAG_APER               Fixed aperture magnitude vector                            [mag]
# 7 MAGERR_APER            RMS error vector for fixed aperture mag.                   [mag]
# 8 CLASS_STAR             S/G classifier output
# 9 FLUX_AUTO              Flux within a Kron-like elliptical aperture                [count]
# 10 FLUXERR_AUTO           RMS error for AUTO flux                                    [count]
# 11 FLUX_APER              Flux vector within fixed circular aperture(s)              [count]
# 12 FLUXERR_APER           RMS error vector for aperture flux(es)                     [count]
# 13 ALPHA_J2000            Right ascension of barycenter (J2000)                      [deg]
# 14 DELTA_J2000            Declination of barycenter (J2000)                          [deg]
773 3973.7334 344.2685 27.9186 0.0411 28.3355 0.0289 0.008 1.167206 0.04421489 0.7951059 0.02114029 215.0169665 52.9749083 21.960105639073173
840 935.4463 368.7893 28.0856 0.0397 28.4164 0.0311 0.105 1.000819 0.03662227 0.7379632 0.02112954 215.0440011 52.9943038 22.733470686825257
1001 3241.1348 441.3374 28.081 0.0523 28.8639 0.047 0.001 1.005089 0.04838802 0.4887168 0.02113492 215.022523 52.9800785 17.27914030022307
1070 2484.5017 465.5284 28.0636 0.0453 29.5461 0.0882 0.355 1.021353 0.04257794 0.2607136 0.02116716 215.0290642 52.9850067 19.95476812898886
1194 3578.4998 520.5799 29.0205 0.087 29.8009 0.1112 0.349 0.4230681 0.03388168 0.2061732 0.02110263 215.0186588 52.9783678 10.387255305728642
1439 2249.0586 620.6565 27.9357 0.0428 28.4464 0.032 0.002 1.148997 0.04529423 0.7178844 0.02114567 215.0295454 52.9873383 21.102381791014
1558 8832.4678 676.3865 27.5058 0.0407 28.5124 0.034 0.002 1.707264 0.06392249 0.6755406 0.02112954 214.9698742 52.9458851 22.217872045973177
1580 4460.0117 674.226 27.6354 0.0352 29.1701 0.0622 0.559 1.515168 0.0491455 0.368619 0.02112416 215.0091258 52.9736086 25.646759197891974
1768 8925.8018 745.7772 29.4462 0.1374 29.5196 0.0858 0.139 0.2858431 0.03615374 0.2671669 0.02110801 214.9683067 52.9456678 6.577031853329698
1909 2288.1631 820.6358 28.7715 0.0891 28.8174 0.045 0.0 0.5321051 0.04363266 0.5101106 0.02114567 215.0270879 52.9881718 10.14474637890516
2312 8030.5112 996.8101 27.9155 0.0444 28.4577 0.0323 0.0 1.170644 0.0478566 0.710457 0.02110801 214.9736913 52.9527043 20.348784165193514
2351 812.2285 1006.9809 28.4727 0.0658 29.3385 0.0727 0.375 0.7006747 0.04244426 0.3156506 0.02112416 215.0383865 52.9985369 13.732605131742195
2421 655.0709 1042.967 27.2528 0.0316 28.2185 0.0259 0.0 2.155156 0.06280135 0.8855207 0.02112416 215.0394199 52.9997278 28.547310236483764
2500 3233.4751 1067.3469 28.6359 0.0679 28.9544 0.051 0.058 0.6029186 0.03769287 0.4496281 0.02112954 215.0159987 52.9835119 13.30622729927437
2616 774.9089 1121.5703 28.0349 0.0518 28.6578 0.0388 0.001 1.048732 0.05006204 0.5908455 0.0211134 215.0375149 52.9993932 17.426550912427857
3334 4133.0679 1404.1884 28.923 0.1112 29.1518 0.0612 0.098 0.4628341 0.04737921 0.3748627 0.02112416 215.004373 52.9796281 8.126302713088716
3379 3639.5564 1427.5503 28.1621 0.0413 28.5802 0.0362 0.009 0.9327334 0.03543932 0.6346183 0.02113492 215.008558 52.9828842 21.894125887799202
3493 7289.9326 1457.3015 29.5436 0.0971 29.6109 0.0935 0.634 0.2613129 0.02335742 0.2456156 0.02115105 214.975484 52.9598908 9.306608440615445
4010 2997.0005 1676.2458 27.2381 0.0192 27.6064 0.0147 0.116 2.184614 0.03866047 1.556074 0.02112416 215.0117085 52.9883035 47.00705522152213
4457 4047.4998 1852.2758 26.7539 0.0236 28.8444 0.0462 0.042 3.412215 0.07420807 0.497566 0.02116179 215.0004211 52.982593 38.25081681884463
4983 1753.7067 2041.673 28.2498 0.0622 29.1413 0.0607 0.079 0.8603852 0.049261 0.3785103 0.02116179 215.0190266 52.9981632 14.529316017214429
5028 2487.9805 2097.3101 25.6176 0.0086 26.6905 0.0063 0.018 9.717398 0.07650819 3.617482 0.02110801 215.0118444 52.9938079 105.65681758070605
5258 2094.8276 2144.6575 28.788 0.0496 28.8595 0.0468 0.074 0.5240876 0.02395797 0.4907033 0.02112416 215.0148771 52.996557 18.197399521411874
5460 3150.1633 2257.4497 26.3235 0.0208 27.9382 0.02 0.0 5.072419 0.09703995 1.146359 0.02112954 215.0042099 52.9904742 43.48305201651485
5497 6069.6899 2235.7412 28.5412 0.0642 28.8817 0.0478 0.015 0.6578328 0.03888034 0.4807667 0.02115105 214.9782315 52.9718383 14.074757868269671
5569 3175.8406 2310.8335 25.9462 0.0136 27.0873 0.0091 0.004 7.180292 0.09024276 2.510178 0.02114029 215.0034169 52.9905999 66.18890541512692
5591 4466.9512 2273.9998 28.6679 0.0709 29.372 0.075 0.664 0.5854072 0.03821693 0.3060538 0.02112416 214.9922126 52.982212 12.742590455695943
5602 3112.0 2267.9929 29.18 0.074 29.6075 0.0929 0.361 0.3652635 0.02488872 0.2463714 0.02106489 215.0044416 52.9907732 12.20841199326442
5611 529.0703 2280.623 28.4153 0.045 28.7883 0.0438 0.28 0.7387342 0.03062184 0.5239317 0.02112954 215.0275131 53.0072202 20.068383185138448
5613 2835.7795 2298.9255 27.6277 0.0362 28.3326 0.0288 0.0 1.525898 0.05090632 0.7971773 0.02112416 215.0065963 52.9926922 24.934993715122207
5626 438.1209 2285.0027 28.0079 0.0469 28.7644 0.0428 0.004 1.075128 0.0464709 0.5355973 0.02109724 215.0282843 53.0078205 19.24573721102884
5681 9519.1709 2369.1379 25.1805 0.0071 26.266 0.0043 0.023 14.53541 0.095237 5.3484 0.02112954 214.9458909 52.9506712 126.9629609994015
5796 6559.8052 2357.9917 27.3529 0.0212 27.6698 0.0156 0.006 1.965453 0.03836535 1.467914 0.02108107 214.9725463 52.9693895 42.61661595971365
5801 8058.3477 2375.3765 25.9844 0.0073 26.4078 0.0049 0.035 6.931915 0.04634845 4.693408 0.02112954 214.9589222 52.9599752 124.41520980852651
5857 7104.6948 2376.0266 28.7957 0.1052 28.9264 0.0497 0.082 0.520398 0.05040145 0.4613656 0.02110801 214.9674683 52.9660298 8.589107739162266
5893 6510.4414 2383.1228 29.1102 0.0856 29.0907 0.0578 0.004 0.3895088 0.03071449 0.3965642 0.02111878 214.9727244 52.9698384 10.549440523218845
5915 9999.5273 2387.4946 28.7883 0.0759 29.3367 0.0727 0.149 0.5239486 0.03662227 0.3161764 0.02115642 214.9413921 52.9477217 11.901422874169189
6273 10005.3359 2525.5527 28.3512 0.0573 29.2018 0.0641 0.076 0.7836829 0.04135924 0.3580007 0.02112954 214.9398858 52.9484303 15.76243407816488
6485 4235.2725 2602.1321 27.2174 0.0339 28.4875 0.0332 0.004 2.226683 0.06942041 0.6912358 0.02114029 214.9908353 52.9854549 26.682510045820816
6496 9431.7295 2613.916 27.5478 0.0342 28.1972 0.0254 0.0 1.64243 0.05179171 0.9030598 0.02116179 214.9440962 52.9525481 26.380442817972224
6663 1267.7227 2659.5024 27.707 0.0383 28.5183 0.0342 0.0 1.418448 0.05000525 0.6718617 0.02116179 215.016883 53.0045854 23.59680909024552
6705 2526.8557 2678.1091 26.624 0.0221 28.2804 0.0274 0.0 3.845882 0.07816161 0.8364377 0.02114029 215.0053756 52.9967012 40.93152455969113
6709 2550.5986 2677.6062 27.2453 0.0292 28.6364 0.038 0.001 2.170073 0.05839355 0.6026442 0.02107028 215.0051676 52.9965479 30.91469223073439
6744 2364.9761 2736.9844 27.1359 0.0361 28.2662 0.0271 0.0 2.400156 0.07985198 0.847514 0.02112416 215.0062092 52.9980461 25.00398577117311
6883 7896.3081 2756.1387 27.9612 0.0533 28.5713 0.0359 0.001 1.12231 0.05508837 0.6398528 0.02115105 214.9563641 52.9630602 16.94760654018262
7076 7314.9077 2855.1262 27.2172 0.0383 28.2615 0.027 0.001 2.226972 0.07848812 0.8511581 0.02116716 214.9605354 52.9672841 23.60295032725972
7086 8834.4814 2824.3442 27.6288 0.046 28.7573 0.0426 0.001 1.524361 0.06462982 0.5391368 0.02113492 214.9472335 52.9574749 19.620512405419046
7316 2913.1443 2895.0012 29.6943 0.1403 29.4723 0.0821 0.259 0.2274549 0.02939078 0.2790564 0.02110263 214.9996207 52.9954237 6.437832125006549
7559 4242.9839 3002.4724 28.2252 0.0469 28.8429 0.046 0.004 0.8800678 0.03799322 0.4982608 0.02112416 214.9865477 52.9875696 19.269280171198965
8060 2318.8054 3221.5598 27.5405 0.0388 28.2195 0.0259 0.002 1.653555 0.05907088 0.8847431 0.02112954 215.0015174 53.0009584 23.286309563189175
8119 9790.7178 3235.8091 28.0167 0.043 28.5115 0.0339 0.005 1.066374 0.04217562 0.6761254 0.02110801 214.934327 52.9536278 21.033112005940872
8216 4045.8096 3306.4631 26.9205 0.0256 27.8652 0.0187 0.0 2.926843 0.06892748 1.226125 0.0211134 214.9851144 52.9904631 35.32339912049592
8327 7219.708 3311.9502 29.1502 0.1264 29.0602 0.0563 0.01 0.3754454 0.04369773 0.4078638 0.02113492 214.956576 52.9703558 7.147322410065694
8746 7852.5527 3473.2344 28.0199 0.0504 28.4747 0.0328 0.002 1.063287 0.04937623 0.6993881 0.02113492 214.949201 52.967211 17.913813117971948
9118 8176.2593 3603.085 28.4253 0.0902 29.7992 0.1113 0.502 0.7319826 0.06077794 0.2064981 0.02115642 214.94493 52.9658579 10.018673970555763
9171 8161.5859 3612.5317 29.1737 0.1214 30.5857 0.2293 0.356 0.3673819 0.04108351 0.1000743 0.02112954 214.9449621 52.9660021 7.438847877238338
9182 8137.5835 3625.0583 27.7724 0.0465 28.7339 0.0416 0.003 1.335538 0.05716408 0.5508909 0.02111878 214.9450453 52.966222 19.43517670642123
9192 8147.29 3620.8301 28.3999 0.0522 29.6003 0.0924 0.356 0.7492553 0.0359962 0.2480221 0.0211134 214.9450028 52.9661376 17.31524456500964
9342 7292.9844 3670.5662 29.1952 0.1136 29.8153 0.1127 0.09 0.3601981 0.03769287 0.2034678 0.02111878 214.9521399 52.9718278 7.949460825004835
9409 3833.9612 3700.0181 28.7186 0.0632 28.9168 0.0493 0.001 0.5587019 0.03251215 0.4654744 0.02112954 214.9828687 52.9939338 14.295189630738049
9432 7283.6479 3713.0718 28.12 0.0523 28.477 0.0329 0.002 0.9696246 0.04671484 0.6979169 0.02111878 214.9517757 52.9721167 17.26649638534564
9677 4423.2881 3795.1785 27.9413 0.0436 28.4756 0.0328 0.002 1.143149 0.04591729 0.6987943 0.02110263 214.9765753 52.9907094 20.710093270530557
9747 9706.4287 4328.8169 27.9875 0.0463 28.6424 0.0383 0.003 1.095504 0.04671484 0.5992942 0.02112416 214.9235652 52.9600641 19.508081639153637
9872 8111.813 3939.8762 27.5692 0.0366 28.3669 0.0297 0.002 1.610356 0.0542568 0.7723861 0.02112954 214.9419589 52.9680857 24.690118947671074
9940 8173.7183 3885.0823 28.3456 0.0452 28.6165 0.0374 0.174 0.7877378 0.0327733 0.6137705 0.02116179 214.9419812 52.9673969 19.994795876094262
9942 6125.2231 3840.5386 28.9561 0.0727 29.0683 0.0567 0.023 0.4489276 0.03005992 0.4048364 0.02111878 214.9608239 52.9801561 12.423499550630872
10059 7093.1152 3883.7649 28.097 0.0746 28.9906 0.0527 0.001 0.9903736 0.0680145 0.4348964 0.0211134 214.9516858 52.9742477 12.113035994265928
10198 7156.2783 3970.2351 27.1587 0.0287 28.1466 0.0242 0.0 2.35026 0.06211896 0.946198 0.02110801 214.950208 52.9743139 31.473656130109067
11140 6924.1934 4355.8022 28.049 0.0473 28.4572 0.0322 0.003 1.035177 0.04510563 0.7107379 0.02107028 214.948226 52.9778692 19.091467982821655
11251 1464.0138 4164.2412 28.1364 0.0495 28.7255 0.0413 0.624 0.955088 0.04356749 0.5551698 0.02112954 214.9992599 53.0114753 18.23628247943593
11474 2697.6885 4285.4258 28.2469 0.0486 28.6097 0.0371 0.0 0.8626416 0.0385869 0.6176262 0.02110801 214.9869012 53.0043052 18.597131870971754
11481 4494.3574 3958.6548 27.1832 0.0264 28.2625 0.027 0.015 2.297842 0.05580583 0.8504037 0.02112416 214.9742144 52.9911418 34.25279804170998
11557 1432.5371 4399.5186 28.4947 0.0676 29.1147 0.0592 0.468 0.6866618 0.0427112 0.3878913 0.02115642 214.9970624 53.0129466 13.37385396724981
11572 8591.9551 3900.0911 28.5503 0.0751 28.7222 0.0412 0.024 0.6523806 0.04510563 0.5568203 0.02111878 214.9380732 52.9648235 12.031665442251887
11588 4177.7603 4041.0085 26.9436 0.0296 28.1127 0.0235 0.003 2.865365 0.07805248 0.9761883 0.02112416 214.9761883 52.9935953 30.538570748168418
11591 1227.7424 4024.5164 28.4239 0.0554 29.0803 0.0574 0.07 0.7328814 0.03739012 0.4003858 0.02115105 215.0028556 53.0122185 16.305431761599053
11615 608.9289 4325.8994 27.8352 0.0543 28.6732 0.0395 0.006 1.26044 0.06307225 0.582518 0.02116716 215.0052387 53.0177722 16.624144894149172
11761 4352.5317 4204.6392 28.3853 0.0631 28.8623 0.0468 0.0 0.7594558 0.04415057 0.4894244 0.0211134 214.9728947 52.9933706 14.30940747415039
11909 1119.0022 4114.3066 28.7434 0.1162 29.2669 0.068 0.008 0.5460842 0.05844219 0.3371775 0.02109724 215.0028861 53.0133935 7.7729986411186855
