# NUMBER X_IMAGE Y_IMAGE MAG_AUTO MAGERR_AUTO MAG_APER MAGERR_APER CLASS_STAR FLUX_AUTO FLUXERR_AUTO FLUX_APER FLUXERR_APER ALPHA_J2000 DELTA_J2000 SNR
# 1 NUMBER                 Running object number
# 2 X_IMAGE                Object position along x                                    [pixel]
# 3 Y_IMAGE                Object position along y                                    [pixel]
# 4 MAG_AUTO               Kron-like elliptical aperture magnitude                    [mag]
# 5 MAGERR_AUTO            RMS error for AUTO magnitude                               [mag]
# 6 MAG_APER               Fixed aperture magnitude vector                            [mag]
# 7 MAGERR_APER            RMS error vector for fixed aperture mag.                   [mag]
# 8 CLASS_STAR             S/G classifier output
# 9 FLUX_AUTO              Flux within a Kron-like elliptical aperture                [count]
# 10 FLUXERR_AUTO           RMS error for AUTO flux                                    [count]
# 11 FLUX_APER              Flux vector within fixed circular aperture(s)              [count]
# 12 FLUXERR_APER           RMS error vector for aperture flux(es)                     [count]
# 13 ALPHA_J2000            Right ascension of barycenter (J2000)                      [deg]
# 14 DELTA_J2000            Declination of barycenter (J2000)                          [deg]
1062 8397.7383 2046.8949 27.6446 0.0377 27.9165 0.0174 0.001 1.50229 0.05214285 1.169568 0.01873149 214.887159 52.8836868 13.814607987480548
1172 9320.748 2101.3352 26.6415 0.017 27.5769 0.0127 0.0 3.784618 0.05907595 1.598939 0.01871721 214.8783344 52.8781182 30.717855317096046
1195 356.7961 2093.4263 27.6999 0.0338 28.2815 0.0243 0.0 1.427754 0.04438548 0.835645 0.01869815 214.958649 52.9349835 15.423822508171591
1326 4401.1343 2163.9048 27.7751 0.0303 28.1748 0.0221 0.0 1.332217 0.03717155 0.9219226 0.01874101 214.9216825 52.9096951 17.184775166222558
2693 654.4232 2704.5183 27.4316 0.0346 28.4042 0.0272 0.0 1.82794 0.05820183 0.746327 0.01869338 214.9495477 52.9363955 15.059302269361634
2775 4318.5972 2722.2107 28.0907 0.0426 28.9059 0.0431 0.002 0.9961351 0.03904297 0.4701677 0.01865997 214.9165438 52.9132329 12.233618986952068
2788 4322.2979 2724.8438 28.4886 0.0644 29.1062 0.052 0.002 0.6905043 0.04093773 0.390957 0.01870768 214.916483 52.9132237 8.08764694102482
3689 8790.0098 3056.4587 27.4647 0.0338 28.937 0.0444 0.002 1.773059 0.05513432 0.4568914 0.01869815 214.8730255 52.8866417 15.419870235272695
3866 3981.4492 3136.4595 27.796 0.0461 28.5154 0.0302 0.0 1.306775 0.05541654 0.6736512 0.01872197 214.9152004 52.9176095 11.306832666745345
3885 9732.127 3127.3318 28.1565 0.0442 28.927 0.0441 0.001 0.937551 0.03817717 0.4611257 0.01872673 214.8638583 52.8810393 11.775265924373127
3991 3943.0464 3159.5005 27.6397 0.0344 29.1448 0.0539 0.139 1.509087 0.04781768 0.3772844 0.01871245 214.9153016 52.9179777 15.132313521484106
4385 2318.5435 3309.1475 28.8085 0.0571 29.3866 0.0673 0.323 0.5142846 0.02703658 0.3019828 0.01872197 214.9282723 52.9290983 9.120766119605364
4724 9950.207 3419.8037 28.8009 0.0747 29.1505 0.054 0.098 0.5178816 0.03564119 0.3753317 0.01865997 214.8588305 52.8812312 6.967192969258322
4914 9199.8271 3498.3066 28.1858 0.0516 28.387 0.0268 0.0 0.9126319 0.04336966 0.7582737 0.01869338 214.8647105 52.8864216 10.089953892444628
5012 2343.0308 3528.4084 28.5141 0.0589 30.1036 0.1302 0.347 0.6744924 0.03656709 0.1560103 0.01870768 214.925744 52.9301267 8.844355973527017
5726 1711.5001 3781.1777 28.7098 0.0528 28.9975 0.047 0.001 0.5632333 0.02736431 0.4321404 0.01869338 214.9287387 52.9355002 9.869232405896588
6129 1487.8379 3926.6946 26.945 0.0166 27.3574 0.0104 0.011 2.861555 0.04362584 1.957173 0.01870291 214.9292097 52.9377056 31.451245567993652
6282 9888.8271 3967.175 27.9 0.0391 28.4848 0.0293 0.0 1.187392 0.04280068 0.6929315 0.01869815 214.8536161 52.884573 13.302185621349942
6414 1761.6394 3997.291 28.6644 0.0879 29.2642 0.0601 0.068 0.5872951 0.04753722 0.3380131 0.01870768 214.9260134 52.9363487 5.92382405826424
6513 7949.0112 4016.8965 27.9242 0.0392 29.5686 0.0795 0.101 1.161304 0.04195931 0.2553783 0.01868384 214.8704325 52.8971644 13.270801044154444
6534 7976.6689 4035.3733 27.1246 0.0262 29.0229 0.0481 0.009 2.425392 0.05846925 0.4221292 0.01870768 214.8699907 52.8970884 19.88996284508524
6781 9333.6357 4110.3281 28.0492 0.0393 28.221 0.023 0.007 1.034976 0.0374106 0.883517 0.01870291 214.8570707 52.8888722 13.265241462045516
6871 240.3106 4135.8003 28.1506 0.0528 28.7591 0.0377 0.0 0.9426775 0.04581844 0.5382261 0.01868384 214.9381851 52.9467532 9.865120560084542
6915 7444.9668 4141.1948 28.3829 0.0626 28.671 0.0348 0.004 0.761133 0.04388051 0.5837265 0.01870291 214.8736309 52.9010366 8.317033283569403
7036 9599.9766 4178.5996 29.2103 0.0658 29.2317 0.0583 0.003 0.3552191 0.02153012 0.3482879 0.01868861 214.8539714 52.8875483 7.910964093976252
7066 8391.8857 4194.5454 27.3563 0.0275 28.11 0.0208 0.0 1.959152 0.04964693 0.97862 0.01872197 214.8646022 52.8953093 18.921488045282963
7662 2014.8422 4411.5264 27.5413 0.0292 28.4125 0.0274 0.0 1.652256 0.04438548 0.7406435 0.01870291 214.9193822 52.9369776 17.849085544191478
8057 1890.2972 4528.7568 28.1829 0.0523 29.0104 0.0476 0.008 0.9150171 0.04408319 0.4270058 0.01870768 214.9192629 52.9384011 9.952581682019837
8927 954.0925 4862.5649 27.4892 0.036 28.5764 0.0319 0.0 1.733579 0.0574697 0.6368576 0.01869338 214.9241332 52.9461464 14.463861734270408
9305 3355.0171 4998.8481 29.1408 0.0942 29.5588 0.0789 0.025 0.3786849 0.0328426 0.2576849 0.01871721 214.9011942 52.9316387 5.528661637659626
9624 7681.8374 5082.124 28.8868 0.0606 29.0752 0.0505 0.007 0.478487 0.02670483 0.4022839 0.01869815 214.8616032 52.9046069 8.591319683742606
9897 981.6162 5164.3066 27.9723 0.0351 28.2997 0.0247 0.0 1.110973 0.03589043 0.8217563 0.01868861 214.9207076 52.9476007 14.842409070328776
10422 8130.4863 5325.0908 28.5948 0.0604 29.6723 0.0877 0.386 0.626179 0.03481884 0.2321068 0.01875052 214.8550326 52.9030669 8.623106591431537
10468 6997.6479 5337.8291 26.7752 0.0185 27.4167 0.011 0.005 3.346066 0.05696335 1.853253 0.01871245 214.8650281 52.9103325 28.165569376449945
10507 8160.0356 5343.8428 28.3581 0.0603 30.2987 0.156 0.383 0.7786682 0.04326677 0.1303495 0.01872197 214.8545709 52.9029803 8.629338756232555
11365 805.6633 5714.916 26.0423 0.0235 29.0231 0.0482 0.0 6.571677 0.1420166 0.4220673 0.01873149 214.9164824 52.95169 22.187923135253204
12053 7768.1841 5988.4199 27.9556 0.0374 29.3129 0.0628 0.24 1.128132 0.03887135 0.3231932 0.01870291 214.8512842 52.9089457 13.915853518851288
12551 1791.3225 5892.166 26.6308 0.0238 28.4663 0.0288 0.0 3.821942 0.08362599 0.7048599 0.01870768 214.905785 52.9463887 21.914036169616647
12752 4438.1504 5574.1968 28.5796 0.0546 29.278 0.0609 0.088 0.6349894 0.03194828 0.3337412 0.01870768 214.8854372 52.9278649 9.530123919221943
13231 783.7996 5745.5122 27.0174 0.0189 27.438 0.0112 0.006 2.677063 0.04659017 1.817239 0.01868384 214.9163559 52.9519939 27.55141133569592
